%OpenBCI Raw EEG Data
%Number of channels = 8
%Sample Rate = 256 Hz
%Board = OpenBCI_GUI$BoardCytonSerial
%Channels = Fp1, Fp2, F3, F4, Fz, Pz, O1, O2
%Data recorded at AIMS Lab (http://aimsl.uiu.ac.bd) by Rana Depto (mail@ranadepto.com)
%Brainwaves were obtained via the Ultracortex Mark IV Headset using the OpenBCI Cyton Board
%Recording Application = ConcentrateToday (https://concentrate.today)
%Data type = RAW data with noise
%Day No = 9
%Subject ID = 6
%Session ID = 7
%Record starting timestamp (UTC+6) = 2022-03-28T14:28:33.477984
%Record ending timestamp (UTC+6)   = 2022-03-28T14:28:59.324546
%Recorded durations = ~25 seconds
Sample Index, EXG Channel 0, EXG Channel 1, EXG Channel 2, EXG Channel 3, EXG Channel 4, EXG Channel 5, EXG Channel 6, EXG Channel 7, Accel Channel 0, Accel Channel 1, Accel Channel 2, Other, Other, Other, Other, Other, Other, Other, Analog Channel 0, Analog Channel 1, Analog Channel 2, Timestamp, Timestamp (Formatted)
219.000000,-23671.011468,-2934.851102,-9349.086505,-1250.267178,-30909.579207,26978.756723,39677.945039,23715.334978,0.088000,0.972000,0.156000,192.000000,0.000000,0.000000,0.000000,0.000000,0.000000,0.000000,0.000000,0.000000,0.000000,1648456113.478455,0.000000
220.000000,-23673.313698,-2937.354498,-9353.154523,-1254.201085,-30913.289596,26975.895700,39681.007228,23714.910294,0.088000,0.972000,0.156000,192.000000,0.000000,0.000000,0.000000,0.000000,0.000000,0.000000,0.000000,0.000000,0.000000,1648456113.478468,0.000000
221.000000,-23672.441980,-2939.656727,-9353.333337,-1256.123335,-30916.083564,26968.720790,39674.346408,23697.006547,0.088000,0.972000,0.156000,192.000000,0.000000,0.000000,0.000000,0.000000,0.000000,0.000000,0.000000,0.000000,0.000000,1648456113.486328,0.000000
222.000000,-23676.353535,-2944.641166,-9356.931967,-1260.057242,-30918.072870,26961.054142,39665.249248,23671.771428,0.084000,0.974000,0.154000,192.000000,2.000000,160.000000,30.000000,112.000000,4.000000,208.000000,0.000000,0.000000,0.000000,1648456113.486334,0.000000
223.000000,-23688.646995,-2955.995852,-9366.923197,-1270.294341,-30925.292483,26956.248517,39653.313417,23662.406047,0.084000,0.974000,0.154000,192.000000,0.000000,0.000000,0.000000,0.000000,0.000000,0.000000,0.000000,0.000000,0.000000,1648456113.493395,0.000000
224.000000,-23686.456524,-2953.425402,-9364.643319,-1266.852172,-30923.772564,26958.684857,39667.551478,23696.559512,0.084000,0.974000,0.154000,192.000000,0.000000,0.000000,0.000000,0.000000,0.000000,0.000000,0.000000,0.000000,0.000000,1648456113.500440,0.000000
225.000000,-23678.387544,-2946.831637,-9359.278901,-1261.577161,-30920.978596,26968.385514,39668.467899,23720.453527,0.084000,0.974000,0.154000,192.000000,0.000000,0.000000,0.000000,0.000000,0.000000,0.000000,0.000000,0.000000,0.000000,1648456113.500444,0.000000
226.000000,-23675.928852,-2946.116381,-9358.206017,-1257.196219,-30922.118535,26970.598337,39671.083053,23720.274713,0.084000,0.974000,0.154000,192.000000,0.000000,0.000000,0.000000,0.000000,0.000000,0.000000,0.000000,0.000000,0.000000,1648456113.507920,0.000000
227.000000,-23673.067829,-2946.205788,-9355.657918,-1257.151515,-30921.872666,26971.872386,39690.327905,23723.985103,0.084000,0.974000,0.154000,192.000000,0.000000,0.000000,0.000000,0.000000,0.000000,0.000000,0.000000,0.000000,0.000000,1648456113.507924,0.000000
228.000000,-23669.759771,-2943.970614,-9352.528674,-1255.899817,-30917.312910,26979.136703,39703.001345,23718.240704,0.084000,0.974000,0.154000,192.000000,0.000000,0.000000,0.000000,0.000000,0.000000,0.000000,0.000000,0.000000,0.000000,1648456113.515869,0.000000
229.000000,-23670.162102,-2944.887035,-9355.456752,-1267.768594,-30919.413974,26980.075476,39694.261812,23706.103707,0.084000,0.974000,0.154000,192.000000,0.000000,0.000000,0.000000,0.000000,0.000000,0.000000,0.000000,0.000000,0.000000,1648456113.515874,0.000000
230.000000,-23668.552776,-2942.271881,-9353.981537,-1246.668547,-30911.568512,26982.891796,39678.727350,23720.811155,0.084000,0.974000,0.154000,192.000000,0.000000,0.000000,0.000000,0.000000,0.000000,0.000000,0.000000,0.000000,0.000000,1648456113.523910,0.000000
231.000000,-23667.859872,-2941.623681,-9352.171046,-1244.120448,-30911.367346,26978.980241,39667.573830,23722.822812,0.084000,0.974000,0.154000,192.000000,0.000000,0.000000,0.000000,0.000000,0.000000,0.000000,0.000000,0.000000,0.000000,1648456113.523915,0.000000
232.000000,-23669.089218,-2939.656727,-9351.299328,-1251.608283,-30913.893093,26975.336906,39671.015998,23704.047347,0.082000,0.974000,0.156000,192.000000,2.000000,144.000000,30.000000,112.000000,4.000000,224.000000,0.000000,0.000000,0.000000,1648456113.530517,0.000000
233.000000,-23671.927890,-2941.735440,-9352.439267,-1253.128201,-30913.222541,26979.807255,39679.934344,23704.516733,0.082000,0.974000,0.156000,192.000000,0.000000,0.000000,0.000000,0.000000,0.000000,0.000000,0.000000,0.000000,0.000000,1648456113.530521,0.000000
234.000000,-23668.195148,-2939.522617,-9349.108857,-1248.300224,-30908.685137,26986.803351,39692.585432,23725.169745,0.082000,0.974000,0.156000,192.000000,0.000000,0.000000,0.000000,0.000000,0.000000,0.000000,0.000000,0.000000,0.000000,1648456113.538508,0.000000
235.000000,-23664.171834,-2934.068791,-9348.147732,-1246.087402,-30906.137038,26988.591491,39689.076208,23721.302893,0.082000,0.974000,0.156000,192.000000,0.000000,0.000000,0.000000,0.000000,0.000000,0.000000,0.000000,0.000000,0.000000,1648456113.538513,0.000000
236.000000,-23662.093122,-2929.531387,-9348.125380,-1246.713250,-30907.344032,26983.763514,39685.924612,23715.223219,0.082000,0.974000,0.156000,192.000000,0.000000,0.000000,0.000000,0.000000,0.000000,0.000000,0.000000,0.000000,0.000000,1648456113.546594,0.000000
237.000000,-23665.937622,-2933.889977,-9351.701659,-1254.893989,-30911.926140,26980.924842,39674.257001,23702.706242,0.082000,0.974000,0.156000,192.000000,0.000000,0.000000,0.000000,0.000000,0.000000,0.000000,0.000000,0.000000,0.000000,1648456113.546601,0.000000
238.000000,-23672.486683,-2943.702393,-9352.908653,-1253.754050,-30911.724974,26982.377706,39674.480519,23708.897675,0.082000,0.974000,0.156000,192.000000,0.000000,0.000000,0.000000,0.000000,0.000000,0.000000,0.000000,0.000000,0.000000,1648456113.552799,0.000000
239.000000,-23676.442942,-2947.971576,-9355.747325,-1254.402251,-30912.507285,26989.597319,39681.409559,23722.465184,0.082000,0.974000,0.156000,192.000000,0.000000,0.000000,0.000000,0.000000,0.000000,0.000000,0.000000,0.000000,0.000000,1648456113.560201,0.000000
240.000000,-23676.241776,-2945.423477,-9355.724973,-1256.883294,-30917.759945,26987.965642,39686.595164,23726.644960,0.082000,0.974000,0.156000,192.000000,0.000000,0.000000,0.000000,0.000000,0.000000,0.000000,0.000000,0.000000,0.000000,1648456113.560204,0.000000
241.000000,-23678.566358,-2946.049326,-9358.608348,-1270.517858,-30926.298312,26984.948156,39683.398865,23712.943341,0.082000,0.974000,0.156000,192.000000,0.000000,0.000000,0.000000,0.000000,0.000000,0.000000,0.000000,0.000000,0.000000,1648456113.568228,0.000000
242.000000,-23679.683945,-2946.406954,-9357.446057,-1258.671434,-30926.164201,26978.890834,39673.497042,23706.975425,0.082000,0.974000,0.156000,192.000000,0.000000,0.000000,0.000000,0.000000,0.000000,0.000000,0.000000,0.000000,0.000000,1648456113.568231,0.000000
243.000000,-23674.878320,-2944.708222,-9351.724011,-1245.372146,-30918.050518,26977.147398,39677.162728,23712.295140,0.076000,0.972000,0.158000,192.000000,2.000000,96.000000,30.000000,96.000000,4.000000,240.000000,0.000000,0.000000,0.000000,1648456113.576926,0.000000
244.000000,-23674.118361,-2947.681004,-9352.975709,-1253.754050,-30919.861009,26970.598337,39672.692379,23692.491495,0.076000,0.972000,0.158000,192.000000,0.000000,0.000000,0.000000,0.000000,0.000000,0.000000,0.000000,0.000000,0.000000,1648456113.576930,0.000000
245.000000,-23671.279689,-2945.132905,-9352.886302,-1253.642291,-30919.548085,26969.078418,39665.875097,23693.899655,0.076000,0.972000,0.158000,192.000000,0.000000,0.000000,0.000000,0.000000,0.000000,0.000000,0.000000,0.000000,0.000000,1648456113.583509,0.000000
246.000000,-23671.391448,-2945.535236,-9354.517979,-1255.989224,-30922.990253,26964.451607,39658.700187,23699.241722,0.076000,0.972000,0.158000,192.000000,0.000000,0.000000,0.000000,0.000000,0.000000,0.000000,0.000000,0.000000,0.000000,1648456113.583513,0.000000
247.000000,-23671.302041,-2946.049326,-9354.473275,-1260.616036,-30925.247780,26966.351505,39672.848841,23709.747041,0.076000,0.972000,0.158000,192.000000,0.000000,0.000000,0.000000,0.000000,0.000000,0.000000,0.000000,0.000000,0.000000,1648456113.591574,0.000000
248.000000,-23667.546948,-2941.556626,-9348.483008,-1252.390594,-30919.861009,26970.464226,39676.380417,23715.536143,0.076000,0.972000,0.158000,192.000000,0.000000,0.000000,0.000000,0.000000,0.000000,0.000000,0.000000,0.000000,0.000000,1648456113.591577,0.000000
249.000000,-23666.742285,-2937.667422,-9345.957261,-1245.930939,-30913.580169,26973.548767,39668.177327,23721.928742,0.076000,0.972000,0.158000,192.000000,0.000000,0.000000,0.000000,0.000000,0.000000,0.000000,0.000000,0.000000,0.000000,1648456113.598264,0.000000
250.000000,-23668.865701,-2937.756829,-9347.745400,-1250.937730,-30914.116611,26975.806293,39681.566022,23724.052158,0.076000,0.972000,0.158000,192.000000,0.000000,0.000000,0.000000,0.000000,0.000000,0.000000,0.000000,0.000000,0.000000,1648456113.598268,0.000000
251.000000,-23664.551814,-2933.442942,-9343.632679,-1243.740468,-30907.902826,26978.220281,39682.705961,23708.003605,0.076000,0.972000,0.158000,192.000000,0.000000,0.000000,0.000000,0.000000,0.000000,0.000000,0.000000,0.000000,0.000000,1648456113.606214,0.000000
252.000000,-23663.948317,-2937.734477,-9345.063191,-1246.243864,-30909.914483,26975.001630,39671.150109,23699.778163,0.076000,0.972000,0.158000,192.000000,0.000000,0.000000,0.000000,0.000000,0.000000,0.000000,0.000000,0.000000,0.000000,1648456113.606218,0.000000
253.000000,-23661.087294,-2933.219425,-9342.716258,-1245.260387,-30909.176875,26974.174616,39667.439719,23705.142582,0.076000,0.974000,0.158000,192.000000,2.000000,96.000000,30.000000,112.000000,4.000000,240.000000,0.000000,0.000000,0.000000,1648456113.613255,0.000000
254.000000,-23664.261241,-2934.180550,-9345.912557,-1258.336158,-30913.401355,26972.006496,39674.502870,23697.386527,0.076000,0.974000,0.158000,192.000000,0.000000,0.000000,0.000000,0.000000,0.000000,0.000000,0.000000,0.000000,0.000000,1648456113.620357,0.000000
255.000000,-23666.518768,-2931.967727,-9346.404296,-1237.102000,-30907.232273,26972.028848,39666.590353,23685.316585,0.076000,0.974000,0.158000,192.000000,0.000000,0.000000,0.000000,0.000000,0.000000,0.000000,0.000000,0.000000,0.000000,1648456113.620362,0.000000
0.000000,-23669.290384,-2933.465294,-9348.348897,-1238.823085,-30906.047631,26970.754799,39669.876059,23687.574111,0.076000,0.974000,0.158000,192.000000,0.000000,0.000000,0.000000,0.000000,0.000000,0.000000,0.000000,0.000000,0.000000,1648456113.627817,0.000000
1.000000,-23666.451712,-2933.130018,-9347.253662,-1241.885274,-30904.661823,26972.542938,39681.677780,23702.102745,0.076000,0.974000,0.158000,192.000000,0.000000,0.000000,0.000000,0.000000,0.000000,0.000000,0.000000,0.000000,0.000000,1648456113.627821,0.000000
2.000000,-23663.389523,-2930.961899,-9344.794970,-1239.270120,-30902.828980,26973.280546,39680.113158,23719.760623,0.076000,0.974000,0.158000,192.000000,0.000000,0.000000,0.000000,0.000000,0.000000,0.000000,0.000000,0.000000,0.000000,1648456113.635873,0.000000
3.000000,-23666.898747,-2933.711163,-9346.761924,-1240.790038,-30902.605462,26972.498235,39662.589391,23704.896713,0.076000,0.974000,0.158000,192.000000,0.000000,0.000000,0.000000,0.000000,0.000000,0.000000,0.000000,0.000000,0.000000,1648456113.635878,0.000000
4.000000,-23662.607212,-2930.246643,-9343.900900,-1241.214721,-30901.711393,26971.693572,39651.726443,23699.353480,0.076000,0.974000,0.158000,192.000000,0.000000,0.000000,0.000000,0.000000,0.000000,0.000000,0.000000,0.000000,0.000000,1648456113.643808,0.000000
5.000000,-23662.137826,-2931.788913,-9344.571453,-1245.573312,-30904.885340,26974.375781,39666.568001,23702.415669,0.076000,0.974000,0.158000,192.000000,0.000000,0.000000,0.000000,0.000000,0.000000,0.000000,0.000000,0.000000,0.000000,1648456113.643812,0.000000
6.000000,-23663.590689,-2932.258300,-9345.912557,-1250.647158,-30909.467448,26972.542938,39671.731254,23697.542989,0.076000,0.974000,0.158000,192.000000,0.000000,0.000000,0.000000,0.000000,0.000000,0.000000,0.000000,0.000000,0.000000,1648456113.650434,0.000000
7.000000,-23664.864739,-2933.912329,-9347.857159,-1257.777364,-30915.033032,26967.066761,39664.869269,23680.578015,0.076000,0.976000,0.162000,192.000000,2.000000,96.000000,30.000000,128.000000,5.000000,16.000000,0.000000,0.000000,0.000000,1648456113.650437,0.000000
8.000000,-23662.137826,-2933.040611,-9342.023354,-1243.360489,-30903.723050,26969.592508,39663.371702,23674.207768,0.076000,0.976000,0.162000,192.000000,0.000000,0.000000,0.000000,0.000000,0.000000,0.000000,0.000000,0.000000,0.000000,1648456113.658460,0.000000
9.000000,-23657.198090,-2929.509035,-9335.809569,-1241.393535,-30897.442209,26973.347601,39675.486347,23705.544913,0.076000,0.976000,0.162000,192.000000,0.000000,0.000000,0.000000,0.000000,0.000000,0.000000,0.000000,0.000000,0.000000,1648456113.658464,0.000000
10.000000,-23663.501282,-2936.102800,-9341.084581,-1249.663681,-30903.007794,26977.303860,39670.993647,23725.840297,0.076000,0.976000,0.162000,192.000000,0.000000,0.000000,0.000000,0.000000,0.000000,0.000000,0.000000,0.000000,0.000000,1648456113.666495,0.000000
11.000000,-23664.998849,-2935.991041,-9343.230348,-1248.702556,-30908.774544,26973.325249,39664.824565,23717.056062,0.076000,0.976000,0.162000,192.000000,0.000000,0.000000,0.000000,0.000000,0.000000,0.000000,0.000000,0.000000,0.000000,1648456113.666499,0.000000
12.000000,-23661.154349,-2932.057134,-9339.095275,-1247.204989,-30908.752192,26971.246537,39673.094710,23718.643036,0.076000,0.976000,0.162000,192.000000,0.000000,0.000000,0.000000,0.000000,0.000000,0.000000,0.000000,0.000000,0.000000,1648456113.673635,0.000000
13.000000,-23658.896823,-2931.699506,-9338.603537,-1252.412945,-30907.589901,26973.884043,39678.325019,23725.639132,0.076000,0.976000,0.162000,192.000000,0.000000,0.000000,0.000000,0.000000,0.000000,0.000000,0.000000,0.000000,0.000000,1648456113.673638,0.000000
14.000000,-23665.959974,-2939.410858,-9347.968918,-1257.710309,-30911.479105,26978.734372,39675.262830,23724.275675,0.076000,0.976000,0.162000,192.000000,0.000000,0.000000,0.000000,0.000000,0.000000,0.000000,0.000000,0.000000,0.000000,1648456113.680124,0.000000
15.000000,-23662.920137,-2937.689774,-9345.130246,-1238.711326,-30909.266282,26973.369953,39676.715693,23711.132850,0.076000,0.976000,0.162000,192.000000,0.000000,0.000000,0.000000,0.000000,0.000000,0.000000,0.000000,0.000000,0.000000,1648456113.688061,0.000000
16.000000,-23664.127131,-2939.813189,-9346.404296,-1248.121410,-30911.210884,26970.419523,39667.439719,23702.370966,0.076000,0.976000,0.162000,192.000000,0.000000,0.000000,0.000000,0.000000,0.000000,0.000000,0.000000,0.000000,0.000000,1648456113.688065,0.000000
17.000000,-23661.377866,-2935.365192,-9345.286709,-1248.456687,-30909.243930,26972.878214,39666.724463,23705.097879,0.078000,0.974000,0.162000,192.000000,2.000000,112.000000,30.000000,112.000000,5.000000,16.000000,0.000000,0.000000,0.000000,1648456113.696088,0.000000
18.000000,-23658.516843,-2931.475989,-9341.106932,-1243.181675,-30903.097201,26975.940403,39674.212298,23713.837411,0.078000,0.974000,0.162000,192.000000,0.000000,0.000000,0.000000,0.000000,0.000000,0.000000,0.000000,0.000000,0.000000,1648456113.696092,0.000000
19.000000,-23662.651916,-2933.621756,-9344.437342,-1245.930939,-30902.739573,26981.237767,39689.567946,23732.210545,0.078000,0.974000,0.162000,192.000000,0.000000,0.000000,0.000000,0.000000,0.000000,0.000000,0.000000,0.000000,0.000000,1648456113.703370,0.000000
20.000000,-23662.808378,-2934.873454,-9345.890206,-1247.696727,-30904.706526,26979.002592,39699.022734,23732.501117,0.078000,0.974000,0.162000,192.000000,0.000000,0.000000,0.000000,0.000000,0.000000,0.000000,0.000000,0.000000,0.000000,1648456113.703374,0.000000
21.000000,-23666.764637,-2938.919120,-9348.214787,-1244.925111,-30904.348898,26979.203758,39698.463940,23721.884039,0.078000,0.974000,0.162000,192.000000,0.000000,0.000000,0.000000,0.000000,0.000000,0.000000,0.000000,0.000000,0.000000,1648456113.710752,0.000000
22.000000,-23670.989117,-2944.998794,-9354.137999,-1252.211780,-30910.003890,26971.693572,39679.599068,23690.077506,0.078000,0.974000,0.162000,192.000000,0.000000,0.000000,0.000000,0.000000,0.000000,0.000000,0.000000,0.000000,0.000000,1648456113.710757,0.000000
23.000000,-23669.133922,-2946.205788,-9355.926139,-1257.553847,-30913.870742,26966.038581,39674.122891,23681.650899,0.078000,0.974000,0.162000,192.000000,0.000000,0.000000,0.000000,0.000000,0.000000,0.000000,0.000000,0.000000,0.000000,1648456113.718757,0.000000
24.000000,-23668.686887,-2944.887035,-9355.434400,-1256.257445,-30912.172009,26975.135741,39679.464958,23710.015262,0.078000,0.974000,0.162000,192.000000,0.000000,0.000000,0.000000,0.000000,0.000000,0.000000,0.000000,0.000000,0.000000,1648456113.718760,0.000000
25.000000,-23675.079486,-2953.894788,-9359.413011,-1258.425565,-30916.754117,26974.398133,39676.670990,23718.911257,0.078000,0.974000,0.162000,192.000000,0.000000,0.000000,0.000000,0.000000,0.000000,0.000000,0.000000,0.000000,0.000000,1648456113.726735,0.000000
26.000000,-23672.620794,-2949.826771,-9358.653052,-1261.912437,-30920.173934,26967.893775,39671.440681,23715.223219,0.078000,0.974000,0.162000,192.000000,0.000000,0.000000,0.000000,0.000000,0.000000,0.000000,0.000000,0.000000,0.000000,1648456113.726739,0.000000
27.000000,-23665.803512,-2938.896768,-9357.133133,-1265.935751,-30915.882399,26974.040505,39684.874080,23727.159050,0.076000,0.970000,0.164000,192.000000,2.000000,96.000000,30.000000,80.000000,5.000000,32.000000,0.000000,0.000000,0.000000,1648456113.733354,0.000000
28.000000,-23662.741323,-2937.399201,-9353.847427,-1241.617053,-30906.785239,26976.119217,39692.719542,23729.863611,0.076000,0.970000,0.164000,192.000000,0.000000,0.000000,0.000000,0.000000,0.000000,0.000000,0.000000,0.000000,0.000000,1648456113.733358,0.000000
29.000000,-23667.971631,-2944.842332,-9353.936834,-1247.607320,-30906.852294,26979.784904,39698.128664,23724.633303,0.076000,0.970000,0.164000,192.000000,0.000000,0.000000,0.000000,0.000000,0.000000,0.000000,0.000000,0.000000,0.000000,1648456113.740386,0.000000
30.000000,-23677.582881,-2953.403050,-9362.430497,-1259.230227,-30914.831867,26979.539034,39692.786597,23727.002588,0.076000,0.970000,0.164000,192.000000,0.000000,0.000000,0.000000,0.000000,0.000000,0.000000,0.000000,0.000000,0.000000,1648456113.748337,0.000000
31.000000,-23673.872492,-2951.994890,-9361.558778,-1259.096117,-30916.552951,26973.168787,39682.795368,23726.600257,0.076000,0.970000,0.164000,192.000000,0.000000,0.000000,0.000000,0.000000,0.000000,0.000000,0.000000,0.000000,0.000000,1648456113.748341,0.000000
32.000000,-23671.614965,-2950.586730,-9359.837694,-1254.156381,-30913.691928,26968.944307,39674.368760,23711.021091,0.076000,0.970000,0.164000,192.000000,0.000000,0.000000,0.000000,0.000000,0.000000,0.000000,0.000000,0.000000,0.000000,1648456113.756435,0.000000
33.000000,-23678.141675,-2955.258245,-9365.023299,-1259.565504,-30914.183666,26974.688706,39676.112196,23708.987082,0.076000,0.970000,0.164000,192.000000,0.000000,0.000000,0.000000,0.000000,0.000000,0.000000,0.000000,0.000000,0.000000,1648456113.756438,0.000000
34.000000,-23674.140713,-2951.525504,-9362.296386,-1256.235094,-30912.373175,26975.202796,39674.994609,23731.160013,0.076000,0.970000,0.164000,192.000000,0.000000,0.000000,0.000000,0.000000,0.000000,0.000000,0.000000,0.000000,0.000000,1648456113.763017,0.000000
35.000000,-23679.259262,-2954.163009,-9365.783258,-1257.442088,-30916.374137,26971.514758,39671.351274,23711.244608,0.076000,0.970000,0.164000,192.000000,0.000000,0.000000,0.000000,0.000000,0.000000,0.000000,0.000000,0.000000,0.000000,1648456113.763021,0.000000
36.000000,-23675.906500,-2950.452620,-9366.073831,-1260.347815,-30921.380928,26960.920031,39672.580620,23691.999756,0.076000,0.970000,0.164000,192.000000,0.000000,0.000000,0.000000,0.000000,0.000000,0.000000,0.000000,0.000000,0.000000,1648456113.771017,0.000000
37.000000,-23668.865701,-2947.099858,-9361.625834,-1259.543152,-30916.664710,26966.999706,39685.187004,23716.720786,0.084000,0.976000,0.166000,192.000000,2.000000,160.000000,30.000000,128.000000,5.000000,48.000000,0.000000,0.000000,0.000000,1648456113.771020,0.000000
38.000000,-23672.374925,-2951.212579,-9360.977633,-1264.639350,-30914.362480,26969.592508,39680.291972,23724.230972,0.084000,0.976000,0.166000,192.000000,0.000000,0.000000,0.000000,0.000000,0.000000,0.000000,0.000000,0.000000,0.000000,1648456113.779010,0.000000
39.000000,-23673.447808,-2951.592559,-9361.961110,-1265.287550,-30914.496590,26964.004572,39667.953809,23708.852972,0.084000,0.976000,0.166000,192.000000,0.000000,0.000000,0.000000,0.000000,0.000000,0.000000,0.000000,0.000000,0.000000,1648456113.779014,0.000000
40.000000,-23672.106704,-2947.479838,-9357.736630,-1269.288512,-30913.848390,26964.295145,39666.769167,23724.007454,0.084000,0.976000,0.166000,192.000000,0.000000,0.000000,0.000000,0.000000,0.000000,0.000000,0.000000,0.000000,0.000000,1648456113.785679,0.000000
41.000000,-23673.492512,-2948.709184,-9357.960148,-1253.418774,-30912.551989,26967.871424,39661.158879,23724.096861,0.084000,0.976000,0.166000,192.000000,0.000000,0.000000,0.000000,0.000000,0.000000,0.000000,0.000000,0.000000,0.000000,1648456113.785683,0.000000
42.000000,-23673.671326,-2947.278672,-9357.110781,-1248.210817,-30911.926140,26964.272793,39660.465975,23713.703300,0.084000,0.976000,0.166000,192.000000,0.000000,0.000000,0.000000,0.000000,0.000000,0.000000,0.000000,0.000000,0.000000,1648456113.793587,0.000000
43.000000,-23667.077561,-2944.551759,-9352.796895,-1248.523742,-30908.506323,26967.759665,39671.150109,23705.567265,0.084000,0.976000,0.166000,192.000000,0.000000,0.000000,0.000000,0.000000,0.000000,0.000000,0.000000,0.000000,0.000000,1648456113.793590,0.000000
44.000000,-23665.937622,-2945.714050,-9351.902825,-1251.340062,-30907.276977,26972.140607,39670.121928,23698.146486,0.084000,0.976000,0.166000,192.000000,0.000000,0.000000,0.000000,0.000000,0.000000,0.000000,0.000000,0.000000,0.000000,1648456113.800687,0.000000
45.000000,-23662.495454,-2945.132905,-9350.517017,-1254.357547,-30906.204093,26972.207662,39665.316303,23707.020129,0.084000,0.976000,0.166000,192.000000,0.000000,0.000000,0.000000,0.000000,0.000000,0.000000,0.000000,0.000000,0.000000,1648456113.808713,0.000000
46.000000,-23649.509090,-2932.906500,-9335.966031,-1237.370221,-30894.156503,26981.416581,39677.877984,23733.775167,0.084000,0.976000,0.166000,192.000000,0.000000,0.000000,0.000000,0.000000,0.000000,0.000000,0.000000,0.000000,0.000000,1648456113.808717,0.000000
47.000000,-23648.056227,-2930.693678,-9333.172063,-1240.208893,-30893.374192,26981.103656,39668.914934,23723.716882,0.082000,0.978000,0.168000,192.000000,2.000000,144.000000,30.000000,144.000000,5.000000,64.000000,0.000000,0.000000,0.000000,1648456113.815326,0.000000
48.000000,-23648.592669,-2933.867625,-9336.725990,-1241.840570,-30893.754172,26970.240709,39649.267751,23698.839390,0.082000,0.978000,0.168000,192.000000,0.000000,0.000000,0.000000,0.000000,0.000000,0.000000,0.000000,0.000000,0.000000,1648456113.815330,0.000000
49.000000,-23644.435244,-2929.218463,-9334.893147,-1236.140875,-30887.585090,26977.080342,39663.550516,23727.069643,0.082000,0.978000,0.168000,192.000000,0.000000,0.000000,0.000000,0.000000,0.000000,0.000000,0.000000,0.000000,0.000000,1648456113.823268,0.000000
50.000000,-23655.164081,-2939.075582,-9344.705563,-1244.880407,-30895.497608,26978.756723,39679.509661,23727.673140,0.082000,0.978000,0.168000,192.000000,0.000000,0.000000,0.000000,0.000000,0.000000,0.000000,0.000000,0.000000,0.000000,1648456113.823272,0.000000
51.000000,-23664.395352,-2949.022108,-9352.193398,-1255.452783,-30907.098163,26969.011363,39676.648638,23701.074565,0.082000,0.978000,0.168000,192.000000,0.000000,0.000000,0.000000,0.000000,0.000000,0.000000,0.000000,0.000000,0.000000,1648456113.831339,0.000000
52.000000,-23668.239852,-2955.481762,-9355.724973,-1263.812335,-30914.675404,26963.713999,39663.282295,23695.576035,0.082000,0.978000,0.168000,192.000000,0.000000,0.000000,0.000000,0.000000,0.000000,0.000000,0.000000,0.000000,0.000000,1648456113.831343,0.000000
53.000000,-23674.543044,-2960.689719,-9361.849351,-1270.204934,-30919.771602,26958.573098,39658.007283,23701.432192,0.082000,0.978000,0.168000,192.000000,0.000000,0.000000,0.000000,0.000000,0.000000,0.000000,0.000000,0.000000,0.000000,1648456113.838577,0.000000
54.000000,-23677.404067,-2962.276693,-9363.950415,-1271.367225,-30921.157410,26955.577964,39670.725426,23702.259207,0.082000,0.978000,0.168000,192.000000,0.000000,0.000000,0.000000,0.000000,0.000000,0.000000,0.000000,0.000000,0.000000,1648456113.838582,0.000000
55.000000,-23675.392410,-2958.856876,-9360.418840,-1267.969759,-30919.145753,26965.010400,39682.370684,23717.637207,0.082000,0.978000,0.168000,192.000000,0.000000,0.000000,0.000000,0.000000,0.000000,0.000000,0.000000,0.000000,0.000000,1648456113.845866,0.000000
56.000000,-23669.133922,-2954.364175,-9355.210883,-1261.241884,-30917.625835,26963.378723,39680.917821,23703.488553,0.082000,0.978000,0.168000,192.000000,0.000000,0.000000,0.000000,0.000000,0.000000,0.000000,0.000000,0.000000,0.000000,1648456113.845870,0.000000
57.000000,-23672.062000,-2957.538123,-9357.222540,-1274.787042,-30922.364404,26963.803406,39670.948943,23687.641166,0.078000,0.974000,0.158000,192.000000,2.000000,112.000000,30.000000,112.000000,4.000000,240.000000,0.000000,0.000000,0.000000,1648456113.853864,0.000000
58.000000,-23667.993983,-2954.788858,-9354.428572,-1273.758861,-30923.258474,26966.798540,39655.369777,23695.061945,0.078000,0.974000,0.158000,192.000000,0.000000,0.000000,0.000000,0.000000,0.000000,0.000000,0.000000,0.000000,0.000000,1648456113.853867,0.000000
59.000000,-23651.118416,-2939.567320,-9340.257566,-1239.650099,-30903.723050,26971.067723,39660.845955,23694.413745,0.078000,0.974000,0.158000,192.000000,0.000000,0.000000,0.000000,0.000000,0.000000,0.000000,0.000000,0.000000,0.000000,1648456113.860868,0.000000
60.000000,-23650.693733,-2937.756829,-9338.804703,-1242.824047,-30900.750268,26973.146435,39680.157862,23710.574056,0.078000,0.974000,0.158000,192.000000,0.000000,0.000000,0.000000,0.000000,0.000000,0.000000,0.000000,0.000000,0.000000,1648456113.867987,0.000000
61.000000,-23650.179642,-2934.716992,-9338.514130,-1243.494599,-30900.057364,26981.595395,39702.308440,23756.618650,0.078000,0.974000,0.158000,192.000000,0.000000,0.000000,0.000000,0.000000,0.000000,0.000000,0.000000,0.000000,0.000000,1648456113.867991,0.000000
62.000000,-23658.159215,-2942.160123,-9348.371249,-1249.864846,-30906.137038,26985.126970,39693.948888,23769.247385,0.078000,0.974000,0.158000,192.000000,0.000000,0.000000,0.000000,0.000000,0.000000,0.000000,0.000000,0.000000,0.000000,1648456113.875684,0.000000
63.000000,-23665.043553,-2947.703355,-9353.959185,-1253.977567,-30914.027204,26977.639136,39687.891565,23746.850937,0.078000,0.974000,0.158000,192.000000,0.000000,0.000000,0.000000,0.000000,0.000000,0.000000,0.000000,0.000000,0.000000,1648456113.875688,0.000000
64.000000,-23669.580957,-2949.536198,-9358.809514,-1258.313806,-30917.625835,26970.106598,39676.291010,23720.297065,0.078000,0.974000,0.158000,192.000000,0.000000,0.000000,0.000000,0.000000,0.000000,0.000000,0.000000,0.000000,0.000000,1648456113.883464,0.000000
65.000000,-23668.910404,-2948.396259,-9360.083563,-1262.270065,-30919.749250,26962.037618,39662.231763,23693.519675,0.078000,0.974000,0.158000,192.000000,0.000000,0.000000,0.000000,0.000000,0.000000,0.000000,0.000000,0.000000,0.000000,1648456113.883480,0.000000
66.000000,-23667.949279,-2950.296158,-9357.937796,-1260.928960,-30920.486858,26970.754799,39684.091769,23731.361178,0.078000,0.974000,0.158000,192.000000,0.000000,0.000000,0.000000,0.000000,0.000000,0.000000,0.000000,0.000000,0.000000,1648456113.891514,0.000000
67.000000,-23669.580957,-2951.659614,-9357.244892,-1258.112640,-30917.648186,26983.003555,39692.451321,23758.742065,0.082000,0.972000,0.154000,192.000000,2.000000,144.000000,30.000000,96.000000,4.000000,208.000000,0.000000,0.000000,0.000000,1648456113.891518,0.000000
68.000000,-23677.068791,-2960.667367,-9364.665671,-1267.746242,-30922.610274,26977.460322,39672.267696,23722.643998,0.082000,0.972000,0.154000,192.000000,0.000000,0.000000,0.000000,0.000000,0.000000,0.000000,0.000000,0.000000,0.000000,1648456113.898137,0.000000
69.000000,-23679.505131,-2964.087184,-9368.733688,-1271.233114,-30925.560704,26970.799502,39661.672969,23706.908370,0.082000,0.972000,0.154000,192.000000,0.000000,0.000000,0.000000,0.000000,0.000000,0.000000,0.000000,0.000000,0.000000,1648456113.898141,0.000000
70.000000,-23672.039649,-2958.186323,-9362.788124,-1266.762765,-30921.984425,26975.716886,39681.700132,23737.329094,0.082000,0.972000,0.154000,192.000000,0.000000,0.000000,0.000000,0.000000,0.000000,0.000000,0.000000,0.000000,0.000000,1648456113.906165,0.000000
71.000000,-23672.598442,-2956.889922,-9360.776467,-1266.986283,-30922.789088,26974.331078,39682.035408,23726.287332,0.082000,0.972000,0.154000,192.000000,0.000000,0.000000,0.000000,0.000000,0.000000,0.000000,0.000000,0.000000,0.000000,1648456113.906169,0.000000
72.000000,-23674.453637,-2955.325300,-9360.865874,-1265.756937,-30922.006777,26969.816025,39671.395978,23712.943341,0.082000,0.972000,0.154000,192.000000,0.000000,0.000000,0.000000,0.000000,0.000000,0.000000,0.000000,0.000000,0.000000,1648456113.914181,0.000000
73.000000,-23672.889015,-2952.486629,-9358.585996,-1263.097079,-30918.944588,26974.219319,39673.698208,23730.422405,0.082000,0.972000,0.154000,192.000000,0.000000,0.000000,0.000000,0.000000,0.000000,0.000000,0.000000,0.000000,0.000000,1648456113.914199,0.000000
74.000000,-23669.536253,-2950.184399,-9355.210883,-1259.833724,-30916.955282,26975.538072,39677.274487,23735.675065,0.082000,0.972000,0.154000,192.000000,0.000000,0.000000,0.000000,0.000000,0.000000,0.000000,0.000000,0.000000,0.000000,1648456113.920266,0.000000
75.000000,-23668.195148,-2948.239797,-9354.115648,-1261.331291,-30916.552951,26978.354392,39686.237536,23735.451548,0.082000,0.972000,0.154000,192.000000,0.000000,0.000000,0.000000,0.000000,0.000000,0.000000,0.000000,0.000000,0.000000,1648456113.920270,0.000000
76.000000,-23674.654803,-2955.973501,-9360.195322,-1269.221457,-30921.291521,26974.040505,39668.289085,23712.026919,0.082000,0.972000,0.154000,192.000000,0.000000,0.000000,0.000000,0.000000,0.000000,0.000000,0.000000,0.000000,0.000000,1648456113.927816,0.000000
77.000000,-23677.225253,-2960.935588,-9365.202113,-1275.524649,-30924.957207,26964.965697,39650.117117,23702.393318,0.082000,0.968000,0.158000,192.000000,2.000000,144.000000,30.000000,64.000000,4.000000,240.000000,0.000000,0.000000,0.000000,1648456113.935851,0.000000
78.000000,-23674.677154,-2958.186323,-9364.308043,-1285.582934,-30924.867800,26967.804368,39672.312399,23725.817946,0.082000,0.968000,0.158000,192.000000,0.000000,0.000000,0.000000,0.000000,0.000000,0.000000,0.000000,0.000000,0.000000,1648456113.935855,0.000000
79.000000,-23672.665497,-2956.755812,-9360.955281,-1268.372091,-30917.447021,26974.912223,39671.954772,23730.489460,0.082000,0.968000,0.158000,192.000000,0.000000,0.000000,0.000000,0.000000,0.000000,0.000000,0.000000,0.000000,0.000000,1648456113.943787,0.000000
80.000000,-23672.598442,-2959.616835,-9363.413973,-1261.331291,-30919.413974,26968.273755,39659.393091,23707.623626,0.082000,0.968000,0.158000,192.000000,0.000000,0.000000,0.000000,0.000000,0.000000,0.000000,0.000000,0.000000,0.000000,1648456113.943791,0.000000
81.000000,-23668.910404,-2955.146486,-9361.044688,-1262.985320,-30916.418840,26970.575985,39670.792481,23706.886018,0.082000,0.968000,0.158000,192.000000,0.000000,0.000000,0.000000,0.000000,0.000000,0.000000,0.000000,0.000000,0.000000,1648456113.950414,0.000000
82.000000,-23671.682021,-2956.286425,-9360.463543,-1266.092213,-30915.949454,26971.313592,39668.177327,23718.799498,0.082000,0.968000,0.158000,192.000000,0.000000,0.000000,0.000000,0.000000,0.000000,0.000000,0.000000,0.000000,0.000000,1648456113.950418,0.000000
83.000000,-23663.791855,-2950.229102,-9349.757057,-1255.475134,-30908.707489,26971.693572,39677.073321,23722.979274,0.082000,0.968000,0.158000,192.000000,0.000000,0.000000,0.000000,0.000000,0.000000,0.000000,0.000000,0.000000,0.000000,1648456113.958451,0.000000
84.000000,-23659.299154,-2948.552722,-9346.136075,-1253.307015,-30903.074849,26977.214453,39686.550461,23717.145469,0.082000,0.968000,0.158000,192.000000,0.000000,0.000000,0.000000,0.000000,0.000000,0.000000,0.000000,0.000000,0.000000,1648456113.958455,0.000000
85.000000,-23661.288459,-2950.206751,-9348.460656,-1259.498448,-30907.813419,26973.057028,39684.605859,23724.052158,0.082000,0.968000,0.158000,192.000000,0.000000,0.000000,0.000000,0.000000,0.000000,0.000000,0.000000,0.000000,0.000000,1648456113.966877,0.000000
86.000000,-23660.975535,-2948.955053,-9347.521883,-1258.403213,-30909.422744,26969.816025,39673.854670,23726.756719,0.082000,0.968000,0.158000,192.000000,0.000000,0.000000,0.000000,0.000000,0.000000,0.000000,0.000000,0.000000,0.000000,1648456113.966895,0.000000
87.000000,-23659.030933,-2946.809285,-9342.962127,-1248.255521,-30900.996137,26977.639136,39685.723446,23737.351446,0.082000,0.968000,0.158000,192.000000,0.000000,0.000000,0.000000,0.000000,0.000000,0.000000,0.000000,0.000000,0.000000,1648456113.973962,0.000000
88.000000,-23667.502244,-2954.095954,-9352.349860,-1260.057242,-30907.969881,26972.766456,39682.415388,23710.641111,0.078000,0.968000,0.162000,192.000000,2.000000,112.000000,30.000000,64.000000,5.000000,16.000000,0.000000,0.000000,0.000000,1648456113.973978,0.000000
89.000000,-23670.609137,-2954.610044,-9355.300290,-1259.878428,-30911.412050,26963.088150,39669.853708,23692.200922,0.078000,0.968000,0.162000,192.000000,0.000000,0.000000,0.000000,0.000000,0.000000,0.000000,0.000000,0.000000,0.000000,1648456113.981299,0.000000
90.000000,-23665.334125,-2949.245626,-9348.460656,-1253.284663,-30906.919349,26967.849072,39674.480519,23725.974408,0.078000,0.968000,0.162000,192.000000,0.000000,0.000000,0.000000,0.000000,0.000000,0.000000,0.000000,0.000000,0.000000,1648456113.981316,0.000000
91.000000,-23660.260279,-2948.195094,-9343.073886,-1251.518876,-30902.113724,26973.995802,39684.829376,23731.361178,0.078000,0.968000,0.162000,192.000000,0.000000,0.000000,0.000000,0.000000,0.000000,0.000000,0.000000,0.000000,0.000000,1648456113.988533,0.000000
92.000000,-23667.993983,-2956.956977,-9350.561720,-1259.364338,-30910.607387,26966.105636,39684.494100,23725.437966,0.078000,0.968000,0.162000,192.000000,0.000000,0.000000,0.000000,0.000000,0.000000,0.000000,0.000000,0.000000,0.000000,1648456113.996492,0.000000
93.000000,-23663.277765,-2952.151352,-9345.018488,-1252.837628,-30906.494666,26968.854900,39692.071342,23748.348504,0.078000,0.968000,0.162000,192.000000,0.000000,0.000000,0.000000,0.000000,0.000000,0.000000,0.000000,0.000000,0.000000,1648456113.996508,0.000000
94.000000,-23661.243756,-2946.719879,-9343.163293,-1249.283701,-30901.823151,26977.907357,39691.043161,23745.018094,0.078000,0.968000,0.162000,192.000000,0.000000,0.000000,0.000000,0.000000,0.000000,0.000000,0.000000,0.000000,0.000000,1648456114.003399,0.000000
95.000000,-23666.965803,-2950.944358,-9348.192435,-1266.874524,-30911.188532,26973.168787,39682.482443,23724.499193,0.078000,0.968000,0.162000,192.000000,0.000000,0.000000,0.000000,0.000000,0.000000,0.000000,0.000000,0.000000,0.000000,1648456114.003412,0.000000
96.000000,-23664.998849,-2950.832600,-9344.459694,-1253.329367,-30911.054422,26968.273755,39675.307533,23714.619722,0.078000,0.968000,0.162000,192.000000,0.000000,0.000000,0.000000,0.000000,0.000000,0.000000,0.000000,0.000000,0.000000,1648456114.011188,0.000000
97.000000,-23659.030933,-2944.104724,-9337.530653,-1238.331346,-30903.745401,26975.269851,39678.727350,23718.978312,0.078000,0.968000,0.162000,192.000000,0.000000,0.000000,0.000000,0.000000,0.000000,0.000000,0.000000,0.000000,0.000000,1648456114.011205,0.000000
98.000000,-23664.842387,-2947.122210,-9341.241043,-1247.786134,-30905.377079,26975.962755,39672.737083,23707.578922,0.086000,0.970000,0.166000,192.000000,2.000000,176.000000,30.000000,80.000000,5.000000,48.000000,0.000000,0.000000,0.000000,1648456114.019193,0.000000
99.000000,-23671.771428,-2951.994890,-9346.113723,-1253.128201,-30912.149657,26972.095903,39662.567039,23696.224236,0.086000,0.970000,0.166000,192.000000,0.000000,0.000000,0.000000,0.000000,0.000000,0.000000,0.000000,0.000000,0.000000,1648456114.019209,0.000000
100.000000,-23670.586785,-2952.866608,-9346.292537,-1253.396422,-30915.860047,26969.525453,39663.326998,23694.369041,0.086000,0.970000,0.166000,192.000000,0.000000,0.000000,0.000000,0.000000,0.000000,0.000000,0.000000,0.000000,0.000000,1648456114.027175,0.000000
101.000000,-23672.576090,-2952.911312,-9346.806627,-1256.413908,-30918.542256,26965.144511,39675.598106,23695.307815,0.086000,0.970000,0.166000,192.000000,0.000000,0.000000,0.000000,0.000000,0.000000,0.000000,0.000000,0.000000,0.000000,1648456114.027191,0.000000
102.000000,-23676.130018,-2953.917140,-9347.834807,-1253.798753,-30917.916407,26964.719828,39682.393036,23698.034727,0.086000,0.970000,0.166000,192.000000,0.000000,0.000000,0.000000,0.000000,0.000000,0.000000,0.000000,0.000000,0.000000,1648456114.033719,0.000000
103.000000,-23674.543044,-2951.704318,-9346.493703,-1250.490695,-30913.177838,26965.658601,39667.551478,23702.125097,0.086000,0.970000,0.166000,192.000000,0.000000,0.000000,0.000000,0.000000,0.000000,0.000000,0.000000,0.000000,0.000000,1648456114.033734,0.000000
104.000000,-23671.056172,-2946.764582,-9341.151636,-1245.640367,-30908.998061,26972.520587,39680.068455,23699.576998,0.086000,0.970000,0.166000,192.000000,0.000000,0.000000,0.000000,0.000000,0.000000,0.000000,0.000000,0.000000,0.000000,1648456114.041779,0.000000
105.000000,-23668.306907,-2944.529408,-9337.776522,-1242.131143,-30907.835771,26985.953985,39703.716600,23731.025902,0.086000,0.970000,0.166000,192.000000,0.000000,0.000000,0.000000,0.000000,0.000000,0.000000,0.000000,0.000000,0.000000,1648456114.041795,0.000000
106.000000,-23678.342840,-2954.498286,-9347.276014,-1248.926073,-30917.290558,26985.886930,39689.389132,23722.755757,0.086000,0.970000,0.166000,192.000000,0.000000,0.000000,0.000000,0.000000,0.000000,0.000000,0.000000,0.000000,0.000000,1648456114.048810,0.000000
107.000000,-23681.136809,-2960.309739,-9349.891168,-1252.703518,-30922.632625,26982.310651,39686.952792,23716.586675,0.086000,0.970000,0.166000,192.000000,0.000000,0.000000,0.000000,0.000000,0.000000,0.000000,0.000000,0.000000,0.000000,1648456114.055729,0.000000
108.000000,-23673.537215,-2954.699451,-9344.727915,-1246.914416,-30918.251684,26982.489465,39688.137434,23698.906445,0.084000,0.974000,0.168000,192.000000,2.000000,160.000000,30.000000,112.000000,5.000000,64.000000,0.000000,0.000000,0.000000,1648456114.055745,0.000000
109.000000,-23675.794742,-2956.040556,-9348.035973,-1250.110716,-30919.458678,26970.531281,39672.826490,23679.527483,0.084000,0.974000,0.168000,192.000000,0.000000,0.000000,0.000000,0.000000,0.000000,0.000000,0.000000,0.000000,0.000000,1648456114.063423,0.000000
110.000000,-23674.163064,-2951.816076,-9346.918386,-1246.690899,-30914.854218,26974.398133,39684.024714,23716.273751,0.084000,0.974000,0.168000,192.000000,0.000000,0.000000,0.000000,0.000000,0.000000,0.000000,0.000000,0.000000,0.000000,1648456114.063439,0.000000
111.000000,-23673.224291,-2950.340861,-9346.784275,-1247.406155,-30915.055384,26973.459360,39680.806062,23723.582771,0.084000,0.974000,0.168000,192.000000,0.000000,0.000000,0.000000,0.000000,0.000000,0.000000,0.000000,0.000000,0.000000,1648456114.071440,0.000000
112.000000,-23674.230119,-2953.805382,-9345.934909,-1248.121410,-30916.731765,26962.708171,39667.618533,23699.398184,0.084000,0.974000,0.168000,192.000000,0.000000,0.000000,0.000000,0.000000,0.000000,0.000000,0.000000,0.000000,0.000000,1648456114.071456,0.000000
113.000000,-23675.861797,-2958.700414,-9344.280880,-1246.959120,-30914.675404,26968.452569,39673.921725,23696.492457,0.084000,0.974000,0.168000,192.000000,0.000000,0.000000,0.000000,0.000000,0.000000,0.000000,0.000000,0.000000,0.000000,1648456114.079362,0.000000
114.000000,-23684.444867,-2965.785917,-9351.366383,-1254.312844,-30921.157410,26969.704267,39676.089844,23681.181512,0.084000,0.974000,0.168000,192.000000,0.000000,0.000000,0.000000,0.000000,0.000000,0.000000,0.000000,0.000000,0.000000,1648456114.079378,0.000000
115.000000,-23683.796666,-2961.226161,-9349.220616,-1249.462515,-30920.665672,26969.525453,39686.528109,23699.129963,0.084000,0.974000,0.168000,192.000000,0.000000,0.000000,0.000000,0.000000,0.000000,0.000000,0.000000,0.000000,0.000000,1648456114.085980,0.000000
116.000000,-23680.130980,-2957.783992,-9345.644336,-1244.723945,-30915.904750,26976.365087,39692.004286,23730.422405,0.084000,0.974000,0.168000,192.000000,0.000000,0.000000,0.000000,0.000000,0.000000,0.000000,0.000000,0.000000,0.000000,1648456114.085995,0.000000
117.000000,-23676.733515,-2958.186323,-9344.638508,-1246.512085,-30914.630701,26973.168787,39679.979048,23723.850992,0.084000,0.974000,0.168000,192.000000,0.000000,0.000000,0.000000,0.000000,0.000000,0.000000,0.000000,0.000000,0.000000,1648456114.094127,0.000000
118.000000,-23675.794742,-2956.688757,-9344.392639,-1247.272044,-30911.724974,26972.162959,39675.598106,23720.587637,0.082000,0.970000,0.164000,192.000000,2.000000,144.000000,30.000000,80.000000,5.000000,32.000000,0.000000,0.000000,0.000000,1648456114.094157,0.000000
119.000000,-23676.107666,-2956.129963,-9344.012659,-1246.132105,-30906.517018,26979.963717,39683.309458,23722.688701,0.082000,0.970000,0.164000,192.000000,0.000000,0.000000,0.000000,0.000000,0.000000,0.000000,0.000000,0.000000,0.000000,1648456114.102095,0.000000
120.000000,-23682.857893,-2961.583789,-9350.606424,-1251.988262,-30914.630701,26974.666354,39676.805100,23706.506038,0.082000,0.970000,0.164000,192.000000,0.000000,0.000000,0.000000,0.000000,0.000000,0.000000,0.000000,0.000000,0.000000,1648456114.102111,0.000000
121.000000,-23679.907463,-2955.906445,-9347.812456,-1247.428506,-30917.357614,26969.860729,39672.491213,23695.643091,0.082000,0.970000,0.164000,192.000000,0.000000,0.000000,0.000000,0.000000,0.000000,0.000000,0.000000,0.000000,0.000000,1648456114.109164,0.000000
122.000000,-23681.852064,-2960.019166,-9353.690964,-1253.642291,-30923.124364,26961.769397,39657.001454,23679.706297,0.082000,0.970000,0.164000,192.000000,0.000000,0.000000,0.000000,0.000000,0.000000,0.000000,0.000000,0.000000,0.000000,1648456114.115616,0.000000
123.000000,-23680.198035,-2961.293216,-9354.137999,-1251.451820,-30920.710375,26967.022057,39673.541745,23693.206751,0.082000,0.970000,0.164000,192.000000,0.000000,0.000000,0.000000,0.000000,0.000000,0.000000,0.000000,0.000000,0.000000,1648456114.115632,0.000000
124.000000,-23674.006602,-2956.375832,-9349.667650,-1246.825009,-30915.278901,26975.202796,39682.393036,23713.546838,0.082000,0.970000,0.164000,192.000000,0.000000,0.000000,0.000000,0.000000,0.000000,0.000000,0.000000,0.000000,0.000000,1648456114.123487,0.000000
125.000000,-23674.744210,-2959.348614,-9352.394563,-1250.177771,-30919.905713,26967.245575,39683.756493,23702.639187,0.082000,0.970000,0.164000,192.000000,0.000000,0.000000,0.000000,0.000000,0.000000,0.000000,0.000000,0.000000,0.000000,1648456114.123498,0.000000
126.000000,-23674.006602,-2959.058041,-9349.980575,-1250.334233,-30919.682195,26964.831586,39689.009153,23708.472992,0.082000,0.970000,0.164000,192.000000,0.000000,0.000000,0.000000,0.000000,0.000000,0.000000,0.000000,0.000000,0.000000,1648456114.131482,0.000000
127.000000,-23670.296212,-2954.654748,-9344.280880,-1246.847361,-30912.440230,26976.052162,39691.356086,23717.011358,0.082000,0.970000,0.164000,192.000000,0.000000,0.000000,0.000000,0.000000,0.000000,0.000000,0.000000,0.000000,0.000000,1648456114.131492,0.000000
128.000000,-23677.091143,-2960.309739,-9351.478142,-1255.117506,-30917.983463,26966.351505,39664.086957,23684.981309,0.082000,0.970000,0.164000,192.000000,2.000000,144.000000,30.000000,80.000000,5.000000,32.000000,0.000000,0.000000,0.000000,1648456114.138769,0.000000
129.000000,-23672.173759,-2954.632396,-9348.527711,-1251.250655,-30915.144791,26958.371932,39654.520411,23682.299099,0.082000,0.970000,0.164000,192.000000,0.000000,0.000000,0.000000,0.000000,0.000000,0.000000,0.000000,0.000000,0.000000,1648456114.138786,0.000000
130.000000,-23670.810303,-2953.581864,-9347.588938,-1249.887198,-30914.921274,26963.646944,39680.023751,23700.247550,0.082000,0.970000,0.164000,192.000000,0.000000,0.000000,0.000000,0.000000,0.000000,0.000000,0.000000,0.000000,0.000000,1648456114.146093,0.000000
131.000000,-23672.777256,-2954.811210,-9350.069982,-1251.720041,-30917.223503,26965.457435,39677.207431,23687.328242,0.082000,0.970000,0.164000,192.000000,0.000000,0.000000,0.000000,0.000000,0.000000,0.000000,0.000000,0.000000,0.000000,1648456114.146105,0.000000
132.000000,-23666.585823,-2951.212579,-9346.046668,-1246.489733,-30914.965977,26969.413694,39679.286144,23701.633358,0.082000,0.970000,0.164000,192.000000,0.000000,0.000000,0.000000,0.000000,0.000000,0.000000,0.000000,0.000000,0.000000,1648456114.154138,0.000000
133.000000,-23665.781160,-2953.872437,-9347.387772,-1247.093230,-30913.982500,26973.280546,39661.851783,23713.479783,0.082000,0.970000,0.164000,192.000000,0.000000,0.000000,0.000000,0.000000,0.000000,0.000000,0.000000,0.000000,0.000000,1648456114.154159,0.000000
134.000000,-23670.072695,-2960.957940,-9352.327508,-1253.374070,-30920.397451,26967.893775,39664.332827,23713.166858,0.082000,0.970000,0.164000,192.000000,0.000000,0.000000,0.000000,0.000000,0.000000,0.000000,0.000000,0.000000,0.000000,1648456114.162113,0.000000
135.000000,-23670.877358,-2960.466201,-9348.192435,-1251.094192,-30916.843524,26967.625555,39691.534900,23712.362196,0.082000,0.970000,0.164000,192.000000,0.000000,0.000000,0.000000,0.000000,0.000000,0.000000,0.000000,0.000000,0.000000,1648456114.162126,0.000000
136.000000,-23669.133922,-2957.404012,-9344.102066,-1248.277873,-30913.669576,26969.368991,39691.914879,23706.059004,0.082000,0.970000,0.164000,192.000000,0.000000,0.000000,0.000000,0.000000,0.000000,0.000000,0.000000,0.000000,0.000000,1648456114.168517,0.000000
137.000000,-23673.626622,-2960.421498,-9348.483008,-1260.392518,-30917.491724,26969.860729,39686.841033,23714.999701,0.082000,0.970000,0.164000,192.000000,0.000000,0.000000,0.000000,0.000000,0.000000,0.000000,0.000000,0.000000,0.000000,1648456114.168533,0.000000
138.000000,-23681.583843,-2967.507001,-9357.624871,-1272.998902,-30924.018434,26967.714961,39671.530088,23709.769393,0.086000,0.968000,0.160000,192.000000,2.000000,176.000000,30.000000,64.000000,5.000000,0.000000,0.000000,0.000000,0.000000,1648456114.175910,0.000000
139.000000,-23683.640204,-2970.412728,-9359.524770,-1251.138896,-30921.447983,26966.284450,39666.724463,23695.553684,0.086000,0.968000,0.160000,192.000000,0.000000,0.000000,0.000000,0.000000,0.000000,0.000000,0.000000,0.000000,0.000000,1648456114.183980,0.000000
140.000000,-23679.214559,-2965.540047,-9356.239063,-1254.379899,-30922.900846,26961.702342,39664.913972,23695.129001,0.086000,0.968000,0.160000,192.000000,0.000000,0.000000,0.000000,0.000000,0.000000,0.000000,0.000000,0.000000,0.000000,1648456114.183996,0.000000
141.000000,-23676.621756,-2967.127021,-9356.283767,-1257.978530,-30923.951378,26958.282525,39651.525277,23683.260224,0.086000,0.968000,0.160000,192.000000,0.000000,0.000000,0.000000,0.000000,0.000000,0.000000,0.000000,0.000000,0.000000,1648456114.190778,0.000000
142.000000,-23673.201939,-2965.763565,-9354.428572,-1257.173867,-30923.012605,26957.433159,39654.699225,23684.534274,0.086000,0.968000,0.160000,192.000000,0.000000,0.000000,0.000000,0.000000,0.000000,0.000000,0.000000,0.000000,0.000000,1648456114.190789,0.000000
143.000000,-23674.408933,-2969.026919,-9357.647223,-1261.040719,-30925.158373,26956.874365,39656.174440,23687.507056,0.086000,0.968000,0.160000,192.000000,0.000000,0.000000,0.000000,0.000000,0.000000,0.000000,0.000000,0.000000,0.000000,1648456114.198215,0.000000
144.000000,-23669.580957,-2960.734422,-9351.925177,-1255.318672,-30921.425631,26955.510909,39654.475707,23692.267977,0.086000,0.968000,0.160000,192.000000,0.000000,0.000000,0.000000,0.000000,0.000000,0.000000,0.000000,0.000000,0.000000,1648456114.198221,0.000000
145.000000,-23670.586785,-2960.533257,-9351.344031,-1254.759878,-30919.302215,26960.361238,39656.353254,23684.310756,0.086000,0.968000,0.160000,192.000000,0.000000,0.000000,0.000000,0.000000,0.000000,0.000000,0.000000,0.000000,0.000000,1648456114.206185,0.000000
146.000000,-23676.375887,-2967.797574,-9356.574339,-1259.878428,-30923.504343,26962.507005,39662.857612,23691.150390,0.086000,0.968000,0.160000,192.000000,0.000000,0.000000,0.000000,0.000000,0.000000,0.000000,0.000000,0.000000,0.000000,1648456114.206191,0.000000
147.000000,-23674.811265,-2967.551704,-9355.076773,-1257.777364,-30922.252646,26964.205738,39672.379455,23718.196001,0.086000,0.968000,0.160000,192.000000,0.000000,0.000000,0.000000,0.000000,0.000000,0.000000,0.000000,0.000000,0.000000,1648456114.214169,0.000000
148.000000,-23682.567320,-2976.604161,-9361.603482,-1266.293379,-30930.500439,26956.159110,39663.706978,23699.576998,0.082000,0.972000,0.160000,192.000000,2.000000,144.000000,30.000000,96.000000,5.000000,0.000000,0.000000,0.000000,0.000000,1648456114.214174,0.000000
149.000000,-23679.393372,-2974.480745,-9361.782296,-1267.567428,-30935.037844,26942.815118,39654.140431,23676.957032,0.082000,0.972000,0.160000,192.000000,0.000000,0.000000,0.000000,0.000000,0.000000,0.000000,0.000000,0.000000,0.000000,1648456114.220908,0.000000
150.000000,-23681.203864,-2975.039539,-9363.972767,-1267.723890,-30933.719091,26944.491499,39650.273579,23669.580957,0.082000,0.972000,0.160000,192.000000,0.000000,0.000000,0.000000,0.000000,0.000000,0.000000,0.000000,0.000000,0.000000,1648456114.220917,0.000000
151.000000,-23685.741268,-2975.017187,-9361.223502,-1263.030024,-30930.120460,26950.526470,39671.820661,23701.968634,0.082000,0.972000,0.160000,192.000000,0.000000,0.000000,0.000000,0.000000,0.000000,0.000000,0.000000,0.000000,0.000000,1648456114.229296,0.000000
152.000000,-23680.399201,-2966.389414,-9352.551025,-1252.457649,-30920.665672,26959.534223,39682.661257,23732.098786,0.082000,0.972000,0.160000,192.000000,0.000000,0.000000,0.000000,0.000000,0.000000,0.000000,0.000000,0.000000,0.000000,1648456114.229311,0.000000
153.000000,-23678.789875,-2962.209637,-9351.366383,-1249.954253,-30916.441192,26959.511871,39666.456242,23704.114402,0.082000,0.972000,0.160000,192.000000,0.000000,0.000000,0.000000,0.000000,0.000000,0.000000,0.000000,0.000000,0.000000,1648456114.236180,0.000000
154.000000,-23685.942434,-2970.971521,-9360.709412,-1262.985320,-30924.130192,26952.024037,39648.217219,23675.101838,0.082000,0.972000,0.160000,192.000000,0.000000,0.000000,0.000000,0.000000,0.000000,0.000000,0.000000,0.000000,0.000000,1648456114.244119,0.000000
155.000000,-23689.161085,-2976.000664,-9363.503380,-1262.448879,-30925.761870,26958.081360,39670.010170,23706.103707,0.082000,0.972000,0.160000,192.000000,0.000000,0.000000,0.000000,0.000000,0.000000,0.000000,0.000000,0.000000,0.000000,1648456114.244136,0.000000
156.000000,-23679.527483,-2968.468126,-9353.869778,-1254.558713,-30919.749250,26961.344714,39691.624307,23727.360216,0.082000,0.972000,0.160000,192.000000,0.000000,0.000000,0.000000,0.000000,0.000000,0.000000,0.000000,0.000000,0.000000,1648456114.250660,0.000000
157.000000,-23682.254396,-2973.586675,-9358.787162,-1261.018367,-30923.012605,26962.685819,39677.498004,23717.838373,0.082000,0.972000,0.160000,192.000000,0.000000,0.000000,0.000000,0.000000,0.000000,0.000000,0.000000,0.000000,0.000000,1648456114.250671,0.000000
158.000000,-23688.244663,-2981.186268,-9364.911540,-1268.685015,-30931.886248,26953.879232,39661.762376,23713.770355,0.082000,0.968000,0.162000,192.000000,2.000000,144.000000,30.000000,64.000000,5.000000,16.000000,0.000000,0.000000,0.000000,1648456114.258914,0.000000
159.000000,-23682.500265,-2975.352463,-9357.647223,-1262.113602,-30930.209867,26948.291296,39652.106422,23701.812172,0.082000,0.968000,0.162000,192.000000,0.000000,0.000000,0.000000,0.000000,0.000000,0.000000,0.000000,0.000000,0.000000,1648456114.258931,0.000000
160.000000,-23680.443904,-2971.105632,-9354.495627,-1257.218570,-30926.007739,26951.778168,39654.587466,23686.814152,0.082000,0.968000,0.162000,192.000000,0.000000,0.000000,0.000000,0.000000,0.000000,0.000000,0.000000,0.000000,0.000000,1648456114.266918,0.000000
161.000000,-23682.388506,-2974.816021,-9358.138962,-1260.884256,-30930.433384,26949.364179,39660.242457,23698.392355,0.082000,0.968000,0.162000,192.000000,0.000000,0.000000,0.000000,0.000000,0.000000,0.000000,0.000000,0.000000,0.000000,1648456114.266934,0.000000
162.000000,-23676.621756,-2970.882114,-9353.266281,-1257.106812,-30925.560704,26957.299049,39675.307533,23712.138678,0.082000,0.968000,0.162000,192.000000,0.000000,0.000000,0.000000,0.000000,0.000000,0.000000,0.000000,0.000000,0.000000,1648456114.274042,0.000000
163.000000,-23676.957032,-2971.686777,-9353.914482,-1257.777364,-30922.900846,26964.742179,39681.387208,23708.227123,0.082000,0.968000,0.162000,192.000000,0.000000,0.000000,0.000000,0.000000,0.000000,0.000000,0.000000,0.000000,0.000000,1648456114.274058,0.000000
164.000000,-23672.821960,-2969.071623,-9352.014584,-1258.000881,-30923.280826,26967.111464,39687.913917,23710.909332,0.082000,0.968000,0.162000,192.000000,0.000000,0.000000,0.000000,0.000000,0.000000,0.000000,0.000000,0.000000,0.000000,1648456114.281430,0.000000
165.000000,-23668.798646,-2966.210600,-9348.013621,-1255.542190,-30920.643320,26964.116331,39689.500891,23715.625550,0.082000,0.968000,0.162000,192.000000,0.000000,0.000000,0.000000,0.000000,0.000000,0.000000,0.000000,0.000000,0.000000,1648456114.281446,0.000000
166.000000,-23674.990079,-2972.513792,-9353.422743,-1274.250600,-30927.348843,26959.444816,39680.157862,23696.380698,0.082000,0.968000,0.162000,192.000000,0.000000,0.000000,0.000000,0.000000,0.000000,0.000000,0.000000,0.000000,0.000000,1648456114.289576,0.000000
167.000000,-23670.564433,-2968.334015,-9348.795932,-1253.664643,-30922.990253,26950.370008,39671.239516,23682.097934,0.082000,0.968000,0.162000,192.000000,0.000000,0.000000,0.000000,0.000000,0.000000,0.000000,0.000000,0.000000,0.000000,1648456114.289593,0.000000
168.000000,-23669.290384,-2966.903504,-9347.141903,-1247.696727,-30918.139925,26951.308781,39675.821623,23700.135791,0.078000,0.970000,0.168000,192.000000,2.000000,112.000000,30.000000,80.000000,5.000000,64.000000,0.000000,0.000000,0.000000,1648456114.296535,0.000000
169.000000,-23670.139750,-2963.863667,-9347.812456,-1252.748221,-30919.570436,26950.727636,39681.677780,23721.682873,0.078000,0.970000,0.168000,192.000000,0.000000,0.000000,0.000000,0.000000,0.000000,0.000000,0.000000,0.000000,0.000000,1648456114.303643,0.000000
170.000000,-23662.607212,-2954.274768,-9340.548139,-1244.031041,-30913.893093,26954.370970,39678.325019,23706.506038,0.078000,0.970000,0.168000,192.000000,0.000000,0.000000,0.000000,0.000000,0.000000,0.000000,0.000000,0.000000,0.000000,1648456114.303659,0.000000
171.000000,-23668.575128,-2961.628492,-9345.018488,-1247.897893,-30917.625835,26950.146490,39661.561210,23675.705335,0.078000,0.970000,0.168000,192.000000,0.000000,0.000000,0.000000,0.000000,0.000000,0.000000,0.000000,0.000000,0.000000,1648456114.310991,0.000000
172.000000,-23660.930832,-2955.392355,-9339.363496,-1244.992166,-30915.904750,26951.554650,39659.326036,23687.015317,0.078000,0.970000,0.168000,192.000000,0.000000,0.000000,0.000000,0.000000,0.000000,0.000000,0.000000,0.000000,0.000000,1648456114.311007,0.000000
173.000000,-23664.171834,-2955.772335,-9340.726953,-1244.165152,-30914.116611,26964.116331,39676.335713,23717.257228,0.078000,0.970000,0.168000,192.000000,0.000000,0.000000,0.000000,0.000000,0.000000,0.000000,0.000000,0.000000,0.000000,1648456114.319144,0.000000
174.000000,-23665.155311,-2956.107611,-9339.385848,-1243.025213,-30913.513114,26963.535185,39677.050969,23710.819925,0.078000,0.970000,0.168000,192.000000,0.000000,0.000000,0.000000,0.000000,0.000000,0.000000,0.000000,0.000000,0.000000,1648456114.319160,0.000000
175.000000,-23664.395352,-2955.392355,-9339.028220,-1242.332309,-30913.602521,26956.404979,39666.612705,23680.242739,0.078000,0.970000,0.168000,192.000000,0.000000,0.000000,0.000000,0.000000,0.000000,0.000000,0.000000,0.000000,0.000000,1648456114.327280,0.000000
176.000000,-23663.501282,-2956.152315,-9338.312964,-1242.578178,-30913.446058,26954.616839,39662.589391,23690.792762,0.078000,0.970000,0.168000,192.000000,0.000000,0.000000,0.000000,0.000000,0.000000,0.000000,0.000000,0.000000,0.000000,1648456114.327296,0.000000
177.000000,-23666.496416,-2959.303911,-9339.274089,-1245.752125,-30913.758983,26963.378723,39678.459129,23723.046329,0.078000,0.970000,0.168000,192.000000,0.000000,0.000000,0.000000,0.000000,0.000000,0.000000,0.000000,0.000000,0.000000,1648456114.333817,0.000000
178.000000,-23665.669401,-2955.884094,-9338.715296,-1243.114620,-30909.780372,26974.487540,39674.882850,23723.716882,0.082000,0.974000,0.164000,192.000000,2.000000,144.000000,30.000000,112.000000,5.000000,32.000000,0.000000,0.000000,0.000000,1648456114.333833,0.000000
179.000000,-23665.535291,-2952.777201,-9338.692944,-1247.942596,-30910.629739,26977.527377,39681.901298,23719.179478,0.082000,0.974000,0.164000,192.000000,0.000000,0.000000,0.000000,0.000000,0.000000,0.000000,0.000000,0.000000,0.000000,1648456114.341412,0.000000
180.000000,-23668.150445,-2958.521600,-9344.079714,-1256.548018,-30916.061213,26979.874310,39697.614574,23730.087129,0.082000,0.974000,0.164000,192.000000,0.000000,0.000000,0.000000,0.000000,0.000000,0.000000,0.000000,0.000000,0.000000,1648456114.341423,0.000000
181.000000,-23669.156274,-2960.421498,-9344.638508,-1236.431448,-30914.943625,26980.768380,39694.954717,23735.295085,0.082000,0.974000,0.164000,192.000000,0.000000,0.000000,0.000000,0.000000,0.000000,0.000000,0.000000,0.000000,0.000000,1648456114.349750,0.000000
182.000000,-23668.686887,-2959.482725,-9344.727915,-1242.891102,-30917.983463,26978.309688,39685.589336,23727.516678,0.082000,0.974000,0.164000,192.000000,0.000000,0.000000,0.000000,0.000000,0.000000,0.000000,0.000000,0.000000,0.000000,1648456114.349761,0.000000
183.000000,-23669.424494,-2957.515771,-9345.979613,-1244.478076,-30916.575303,26976.722715,39675.106367,23723.694530,0.082000,0.974000,0.164000,192.000000,0.000000,0.000000,0.000000,0.000000,0.000000,0.000000,0.000000,0.000000,0.000000,1648456114.355934,0.000000
184.000000,-23675.682983,-2959.572132,-9351.008755,-1246.914416,-30917.245855,26975.627479,39668.311437,23718.084242,0.082000,0.974000,0.164000,192.000000,0.000000,0.000000,0.000000,0.000000,0.000000,0.000000,0.000000,0.000000,0.000000,1648456114.363267,0.000000
185.000000,-23673.827788,-2961.516733,-9350.047630,-1250.155419,-30920.889189,26970.754799,39677.207431,23722.576943,0.082000,0.974000,0.164000,192.000000,0.000000,0.000000,0.000000,0.000000,0.000000,0.000000,0.000000,0.000000,0.000000,1648456114.363278,0.000000
186.000000,-23667.748114,-2957.471068,-9345.621985,-1250.825971,-30921.000948,26974.129912,39703.917766,23728.209582,0.082000,0.974000,0.164000,192.000000,0.000000,0.000000,0.000000,0.000000,0.000000,0.000000,0.000000,0.000000,0.000000,1648456114.371403,0.000000
187.000000,-23671.436151,-2959.415669,-9347.611290,-1251.563579,-30920.218637,26976.655659,39705.214167,23722.599294,0.082000,0.974000,0.164000,192.000000,0.000000,0.000000,0.000000,0.000000,0.000000,0.000000,0.000000,0.000000,0.000000,1648456114.371419,0.000000
188.000000,-23679.438076,-2965.227123,-9354.853255,-1251.027137,-30921.023300,26969.391342,39684.404693,23704.874361,0.082000,0.976000,0.160000,192.000000,2.000000,144.000000,30.000000,128.000000,5.000000,0.000000,0.000000,0.000000,0.000000,1648456114.379574,0.000000
189.000000,-23679.102800,-2965.338882,-9356.730802,-1252.234131,-30920.755079,26963.736351,39680.314324,23713.703300,0.082000,0.976000,0.160000,192.000000,0.000000,0.000000,0.000000,0.000000,0.000000,0.000000,0.000000,0.000000,0.000000,1648456114.379591,0.000000
190.000000,-23680.712125,-2966.948207,-9359.994156,-1263.745280,-30925.180724,26966.172691,39675.598106,23721.816983,0.082000,0.976000,0.160000,192.000000,0.000000,0.000000,0.000000,0.000000,0.000000,0.000000,0.000000,0.000000,0.000000,1648456114.386066,0.000000
191.000000,-23680.801532,-2966.814097,-9361.692889,-1268.528553,-30929.762832,26963.892813,39673.742911,23706.707204,0.082000,0.976000,0.160000,192.000000,0.000000,0.000000,0.000000,0.000000,0.000000,0.000000,0.000000,0.000000,0.000000,1648456114.386082,0.000000
192.000000,-23675.548872,-2961.337919,-9354.517979,-1237.012593,-30916.530599,26974.062857,39697.234594,23714.820887,0.082000,0.976000,0.160000,192.000000,0.000000,0.000000,0.000000,0.000000,0.000000,0.000000,0.000000,0.000000,0.000000,1648456114.393991,0.000000
193.000000,-23672.710201,-2961.069698,-9351.791066,-1236.073820,-30911.076774,26980.701325,39697.324001,23728.969542,0.082000,0.976000,0.160000,192.000000,0.000000,0.000000,0.000000,0.000000,0.000000,0.000000,0.000000,0.000000,0.000000,1648456114.394008,0.000000
194.000000,-23676.398239,-2965.271826,-9356.328470,-1243.002861,-30913.960149,26977.728543,39682.504795,23731.182364,0.082000,0.976000,0.160000,192.000000,0.000000,0.000000,0.000000,0.000000,0.000000,0.000000,0.000000,0.000000,0.000000,1648456114.402021,0.000000
195.000000,-23672.039649,-2964.221294,-9356.350822,-1248.814314,-30920.889189,26969.391342,39670.881888,23707.288350,0.082000,0.976000,0.160000,192.000000,0.000000,0.000000,0.000000,0.000000,0.000000,0.000000,0.000000,0.000000,0.000000,1648456114.402037,0.000000
196.000000,-23674.744210,-2965.271826,-9363.212808,-1260.392518,-30931.394509,26963.088150,39665.025731,23675.638279,0.082000,0.976000,0.160000,192.000000,0.000000,0.000000,0.000000,0.000000,0.000000,0.000000,0.000000,0.000000,0.000000,1648456114.409215,0.000000
197.000000,-23669.804474,-2965.651806,-9356.708450,-1250.334233,-30923.660806,26971.693572,39672.692379,23690.233969,0.082000,0.976000,0.160000,192.000000,0.000000,0.000000,0.000000,0.000000,0.000000,0.000000,0.000000,0.000000,0.000000,1648456114.409231,0.000000
198.000000,-23676.711163,-2976.961789,-9355.389697,-1252.547056,-30920.710375,26983.383534,39685.991667,23730.645922,0.082000,0.976000,0.160000,192.000000,0.000000,0.000000,0.000000,0.000000,0.000000,0.000000,0.000000,0.000000,0.000000,1648456114.415761,0.000000
199.000000,-23677.337012,-2976.224181,-9354.026241,-1253.150553,-30918.765774,26989.798485,39696.228766,23752.774150,0.082000,0.976000,0.158000,192.000000,2.000000,144.000000,30.000000,128.000000,4.000000,240.000000,0.000000,0.000000,0.000000,1648456114.415777,0.000000
200.000000,-23683.327279,-2979.822812,-9361.245854,-1263.745280,-30925.918332,26985.372840,39676.492176,23732.210545,0.082000,0.976000,0.158000,192.000000,0.000000,0.000000,0.000000,0.000000,0.000000,0.000000,0.000000,0.000000,0.000000,1648456114.423523,0.000000
201.000000,-23685.048364,-2979.420481,-9361.178799,-1271.344873,-30930.746309,26978.957889,39674.122891,23723.336902,0.082000,0.976000,0.158000,192.000000,0.000000,0.000000,0.000000,0.000000,0.000000,0.000000,0.000000,0.000000,0.000000,1648456114.431807,0.000000
202.000000,-23681.069753,-2973.921952,-9356.909616,-1251.161248,-30925.985387,26973.816988,39672.826490,23713.055100,0.082000,0.976000,0.158000,192.000000,0.000000,0.000000,0.000000,0.000000,0.000000,0.000000,0.000000,0.000000,0.000000,1648456114.431824,0.000000
203.000000,-23678.231082,-2970.591542,-9352.551025,-1244.343966,-30919.883361,26975.895700,39669.719597,23722.800460,0.082000,0.976000,0.158000,192.000000,0.000000,0.000000,0.000000,0.000000,0.000000,0.000000,0.000000,0.000000,0.000000,1648456114.438779,0.000000
204.000000,-23672.419628,-2968.378719,-9350.181741,-1245.170980,-30917.268207,26972.498235,39656.442661,23717.056062,0.082000,0.976000,0.158000,192.000000,0.000000,0.000000,0.000000,0.000000,0.000000,0.000000,0.000000,0.000000,0.000000,1648456114.438796,0.000000
205.000000,-23673.447808,-2970.412728,-9353.467447,-1252.614111,-30920.106878,26971.402999,39661.024768,23713.345672,0.082000,0.976000,0.158000,192.000000,0.000000,0.000000,0.000000,0.000000,0.000000,0.000000,0.000000,0.000000,0.000000,1648456114.446337,0.000000
206.000000,-23677.918157,-2973.989007,-9358.831866,-1259.990187,-30927.751175,26971.581813,39676.089844,23712.473954,0.082000,0.976000,0.158000,192.000000,0.000000,0.000000,0.000000,0.000000,0.000000,0.000000,0.000000,0.000000,0.000000,1648456114.446353,0.000000
207.000000,-23672.889015,-2968.490478,-9354.182703,-1253.508181,-30925.471297,26973.034677,39692.093693,23724.990931,0.082000,0.976000,0.158000,192.000000,0.000000,0.000000,0.000000,0.000000,0.000000,0.000000,0.000000,0.000000,0.000000,1648456114.454285,0.000000
208.000000,-23675.168893,-2970.591542,-9353.690964,-1254.134030,-30924.107841,26972.252366,39684.762321,23728.254286,0.082000,0.976000,0.158000,192.000000,0.000000,0.000000,0.000000,0.000000,0.000000,0.000000,0.000000,0.000000,0.000000,1648456114.454301,0.000000
209.000000,-23675.168893,-2968.803402,-9354.674441,-1257.285626,-30924.621931,26966.999706,39664.779862,23703.287387,0.072000,0.972000,0.158000,192.000000,2.000000,64.000000,30.000000,96.000000,4.000000,240.000000,0.000000,0.000000,0.000000,1648456114.462056,0.000000
210.000000,-23672.821960,-2965.629454,-9354.137999,-1255.408079,-30922.632625,26964.697476,39671.463033,23687.462352,0.072000,0.972000,0.158000,192.000000,0.000000,0.000000,0.000000,0.000000,0.000000,0.000000,0.000000,0.000000,0.000000,1648456114.462072,0.000000
211.000000,-23671.436151,-2964.265998,-9353.914482,-1256.279797,-30921.805611,26961.456473,39672.133585,23701.655710,0.072000,0.972000,0.158000,192.000000,0.000000,0.000000,0.000000,0.000000,0.000000,0.000000,0.000000,0.000000,0.000000,1648456114.468633,0.000000
212.000000,-23670.698544,-2963.953073,-9350.829941,-1249.797791,-30915.927102,26967.558499,39679.911993,23725.370911,0.072000,0.972000,0.158000,192.000000,0.000000,0.000000,0.000000,0.000000,0.000000,0.000000,0.000000,0.000000,0.000000,1648456114.468642,0.000000
213.000000,-23672.263166,-2965.338882,-9353.959185,-1253.642291,-30914.518942,26975.783941,39696.228766,23731.718806,0.072000,0.972000,0.158000,192.000000,0.000000,0.000000,0.000000,0.000000,0.000000,0.000000,0.000000,0.000000,0.000000,1648456114.476962,0.000000
214.000000,-23668.709239,-2962.388451,-9353.109819,-1251.585931,-30913.669576,26970.732447,39686.505757,23714.865591,0.072000,0.972000,0.158000,192.000000,0.000000,0.000000,0.000000,0.000000,0.000000,0.000000,0.000000,0.000000,0.000000,1648456114.476979,0.000000
215.000000,-23673.492512,-2967.596408,-9357.401354,-1267.030986,-30921.537390,26964.205738,39678.548536,23688.445829,0.072000,0.972000,0.158000,192.000000,0.000000,0.000000,0.000000,0.000000,0.000000,0.000000,0.000000,0.000000,0.000000,1648456114.483815,0.000000
216.000000,-23672.620794,-2965.942379,-9356.261415,-1257.307977,-30922.252646,26960.294182,39681.409559,23686.277710,0.072000,0.972000,0.158000,192.000000,0.000000,0.000000,0.000000,0.000000,0.000000,0.000000,0.000000,0.000000,0.000000,1648456114.490807,0.000000
217.000000,-23667.859872,-2957.135791,-9350.114685,-1237.549035,-30910.205055,26974.889871,39695.938193,23725.125042,0.072000,0.972000,0.158000,192.000000,0.000000,0.000000,0.000000,0.000000,0.000000,0.000000,0.000000,0.000000,0.000000,1648456114.490823,0.000000
218.000000,-23670.787951,-2960.734422,-9355.546159,-1246.445030,-30911.434401,26983.584700,39688.964449,23750.158995,0.072000,0.972000,0.158000,192.000000,0.000000,0.000000,0.000000,0.000000,0.000000,0.000000,0.000000,0.000000,0.000000,1648456114.498426,0.000000
219.000000,-23671.860835,-2961.606140,-9357.311947,-1250.982434,-30916.821172,26981.349526,39684.941135,23747.253269,0.074000,0.972000,0.156000,192.000000,2.000000,80.000000,30.000000,96.000000,4.000000,224.000000,0.000000,0.000000,0.000000,1648456114.498436,0.000000
220.000000,-23665.602346,-2956.062908,-9351.344031,-1245.640367,-30915.301253,26982.310651,39685.164652,23745.196908,0.074000,0.972000,0.156000,192.000000,0.000000,0.000000,0.000000,0.000000,0.000000,0.000000,0.000000,0.000000,0.000000,1648456114.506640,0.000000
221.000000,-23660.908480,-2950.631434,-9345.599633,-1239.784210,-30911.993195,26978.957889,39683.532975,23739.519565,0.074000,0.972000,0.156000,192.000000,0.000000,0.000000,0.000000,0.000000,0.000000,0.000000,0.000000,0.000000,0.000000,1648456114.506657,0.000000
222.000000,-23653.644163,-2940.059059,-9337.754171,-1231.178788,-30905.086506,26976.678011,39677.945039,23735.831527,0.074000,0.972000,0.156000,192.000000,0.000000,0.000000,0.000000,0.000000,0.000000,0.000000,0.000000,0.000000,0.000000,1648456114.514397,0.000000
223.000000,-23652.928907,-2939.075582,-9337.865929,-1229.189483,-30900.370288,26980.991898,39675.240478,23725.147393,0.074000,0.972000,0.156000,192.000000,0.000000,0.000000,0.000000,0.000000,0.000000,0.000000,0.000000,0.000000,0.000000,1648456114.514414,0.000000
224.000000,-23653.152424,-2939.634376,-9339.430551,-1233.413963,-30900.437343,26978.913185,39666.478594,23712.496306,0.074000,0.972000,0.156000,192.000000,0.000000,0.000000,0.000000,0.000000,0.000000,0.000000,0.000000,0.000000,0.000000,1648456114.521122,0.000000
225.000000,-23657.108683,-2944.954091,-9342.984479,-1235.112695,-30903.611291,26972.811159,39654.229838,23693.117344,0.074000,0.972000,0.156000,192.000000,0.000000,0.000000,0.000000,0.000000,0.000000,0.000000,0.000000,0.000000,0.000000,1648456114.521139,0.000000
226.000000,-23661.333163,-2950.452620,-9348.125380,-1242.712288,-30912.283768,26957.142586,39637.846009,23663.389523,0.074000,0.972000,0.156000,192.000000,0.000000,0.000000,0.000000,0.000000,0.000000,0.000000,0.000000,0.000000,0.000000,1648456114.529173,0.000000
227.000000,-23658.293326,-2948.060983,-9342.850368,-1240.141838,-30911.233236,26959.467168,39666.098614,23703.756774,0.074000,0.972000,0.156000,192.000000,0.000000,0.000000,0.000000,0.000000,0.000000,0.000000,0.000000,0.000000,0.000000,1648456114.529190,0.000000
228.000000,-23658.136863,-2949.044460,-9342.984479,-1242.444067,-30910.853256,26966.731485,39687.198661,23733.730463,0.074000,0.972000,0.156000,192.000000,0.000000,0.000000,0.000000,0.000000,0.000000,0.000000,0.000000,0.000000,0.000000,1648456114.537310,0.000000
229.000000,-23663.166006,-2953.179533,-9348.214787,-1244.411021,-30914.585997,26968.877252,39686.773978,23727.494327,0.082000,0.972000,0.158000,192.000000,2.000000,144.000000,30.000000,96.000000,4.000000,240.000000,0.000000,0.000000,0.000000,1648456114.537327,0.000000
230.000000,-23663.680096,-2951.033765,-9347.655993,-1251.742393,-30917.134096,26963.535185,39681.566022,23720.095899,0.082000,0.972000,0.158000,192.000000,0.000000,0.000000,0.000000,0.000000,0.000000,0.000000,0.000000,0.000000,0.000000,1648456114.545738,0.000000
231.000000,-23667.189320,-2956.487591,-9352.260453,-1264.818163,-30923.549047,26951.711112,39654.967446,23699.398184,0.082000,0.972000,0.158000,192.000000,0.000000,0.000000,0.000000,0.000000,0.000000,0.000000,0.000000,0.000000,0.000000,1648456114.551829,0.000000
232.000000,-23672.196111,-2961.941416,-9355.277938,-1241.147666,-30918.855181,26943.910354,39634.694414,23683.684907,0.082000,0.972000,0.158000,192.000000,0.000000,0.000000,0.000000,0.000000,0.000000,0.000000,0.000000,0.000000,0.000000,1648456114.551841,0.000000
233.000000,-23679.862759,-2968.065794,-9363.726898,-1253.597588,-30924.554875,26949.140662,39660.354216,23699.688756,0.082000,0.972000,0.158000,192.000000,0.000000,0.000000,0.000000,0.000000,0.000000,0.000000,0.000000,0.000000,0.000000,1648456114.558903,0.000000
234.000000,-23673.581919,-2962.746079,-9357.222540,-1251.205951,-30922.140887,26956.494386,39705.214167,23736.300914,0.082000,0.972000,0.158000,192.000000,0.000000,0.000000,0.000000,0.000000,0.000000,0.000000,0.000000,0.000000,0.000000,1648456114.558918,0.000000
235.000000,-23672.911367,-2961.852010,-9356.261415,-1252.278835,-30919.928064,26961.121197,39701.593185,23731.763510,0.082000,0.972000,0.158000,192.000000,0.000000,0.000000,0.000000,0.000000,0.000000,0.000000,0.000000,0.000000,0.000000,1648456114.566695,0.000000
236.000000,-23672.441980,-2963.796611,-9357.021374,-1252.100021,-30922.051480,26960.651810,39691.646658,23728.857783,0.082000,0.972000,0.158000,192.000000,0.000000,0.000000,0.000000,0.000000,0.000000,0.000000,0.000000,0.000000,0.000000,1648456114.566707,0.000000
237.000000,-23670.027992,-2964.243646,-9358.228369,-1255.162210,-30925.918332,26951.152319,39679.353199,23713.815059,0.082000,0.972000,0.158000,192.000000,0.000000,0.000000,0.000000,0.000000,0.000000,0.000000,0.000000,0.000000,0.000000,1648456114.573769,0.000000
238.000000,-23673.380753,-2969.585713,-9360.530598,-1262.739451,-30930.768660,26944.916182,39664.645751,23692.022108,0.082000,0.972000,0.158000,192.000000,0.000000,0.000000,0.000000,0.000000,0.000000,0.000000,0.000000,0.000000,0.000000,1648456114.573785,0.000000
239.000000,-23678.789875,-2971.463260,-9364.330395,-1264.840515,-30932.154469,26939.954095,39645.087975,23687.350593,0.078000,0.970000,0.164000,192.000000,2.000000,112.000000,30.000000,80.000000,5.000000,32.000000,0.000000,0.000000,0.000000,1648456114.581232,0.000000
240.000000,-23673.492512,-2968.222257,-9357.647223,-1259.498448,-30927.795878,26942.882173,39667.372664,23715.491440,0.078000,0.970000,0.164000,192.000000,0.000000,0.000000,0.000000,0.000000,0.000000,0.000000,0.000000,0.000000,0.000000,1648456114.581243,0.000000
241.000000,-23665.982326,-2959.974463,-9349.578243,-1251.273006,-30920.308044,26953.968639,39679.263792,23729.841260,0.078000,0.970000,0.164000,192.000000,0.000000,0.000000,0.000000,0.000000,0.000000,0.000000,0.000000,0.000000,0.000000,1648456114.589527,0.000000
242.000000,-23665.423532,-2958.588655,-9348.773581,-1250.624806,-30919.503381,26951.711112,39672.401806,23721.794632,0.078000,0.970000,0.164000,192.000000,0.000000,0.000000,0.000000,0.000000,0.000000,0.000000,0.000000,0.000000,0.000000,1648456114.589544,0.000000
243.000000,-23673.984250,-2967.439946,-9355.724973,-1254.223437,-30920.598617,26952.895755,39675.352237,23715.402033,0.078000,0.970000,0.164000,192.000000,0.000000,0.000000,0.000000,0.000000,0.000000,0.000000,0.000000,0.000000,0.000000,1648456114.597309,0.000000
244.000000,-23672.889015,-2965.048309,-9352.685136,-1251.340062,-30917.871704,26958.237822,39678.302667,23729.841260,0.078000,0.970000,0.164000,192.000000,0.000000,0.000000,0.000000,0.000000,0.000000,0.000000,0.000000,0.000000,0.000000,1648456114.597325,0.000000
245.000000,-23671.056172,-2963.327225,-9352.394563,-1250.937730,-30918.072870,26958.528395,39672.535917,23733.283428,0.078000,0.970000,0.164000,192.000000,0.000000,0.000000,0.000000,0.000000,0.000000,0.000000,0.000000,0.000000,0.000000,1648456114.603617,0.000000
246.000000,-23664.909442,-2956.934626,-9347.566586,-1248.590797,-30918.698718,26955.890889,39670.814833,23722.420481,0.078000,0.970000,0.164000,192.000000,0.000000,0.000000,0.000000,0.000000,0.000000,0.000000,0.000000,0.000000,0.000000,1648456114.611204,0.000000
247.000000,-23664.730628,-2959.236855,-9348.393601,-1248.546094,-30919.346919,26952.783996,39662.254114,23690.479838,0.078000,0.970000,0.164000,192.000000,0.000000,0.000000,0.000000,0.000000,0.000000,0.000000,0.000000,0.000000,0.000000,1648456114.611219,0.000000
248.000000,-23664.171834,-2961.539085,-9350.181741,-1248.948425,-30918.765774,26951.577002,39661.672969,23689.853989,0.078000,0.970000,0.164000,192.000000,0.000000,0.000000,0.000000,0.000000,0.000000,0.000000,0.000000,0.000000,0.000000,1648456114.619049,0.000000
249.000000,-23664.909442,-2961.740251,-9351.388735,-1250.289530,-30920.598617,26945.944362,39655.995626,23711.892809,0.080000,0.968000,0.166000,192.000000,2.000000,128.000000,30.000000,64.000000,5.000000,48.000000,0.000000,0.000000,0.000000,1648456114.619066,0.000000
250.000000,-23661.042590,-2956.912274,-9347.410124,-1246.981471,-30917.581131,26950.705284,39665.964504,23732.165841,0.080000,0.968000,0.166000,192.000000,0.000000,0.000000,0.000000,0.000000,0.000000,0.000000,0.000000,0.000000,0.000000,1648456114.626226,0.000000
251.000000,-23666.004678,-2960.309739,-9350.002927,-1250.401288,-30919.190457,26955.309743,39670.636019,23736.837356,0.080000,0.968000,0.166000,192.000000,0.000000,0.000000,0.000000,0.000000,0.000000,0.000000,0.000000,0.000000,0.000000,1648456114.626241,0.000000
252.000000,-23659.969707,-2955.057079,-9344.683211,-1246.020346,-30915.681233,26954.952115,39672.245344,23732.635228,0.080000,0.968000,0.166000,192.000000,0.000000,0.000000,0.000000,0.000000,0.000000,0.000000,0.000000,0.000000,0.000000,1648456114.633837,0.000000
253.000000,-23662.584861,-2958.052213,-9348.483008,-1250.110716,-30919.033995,26954.460377,39671.932420,23726.332036,0.080000,0.968000,0.166000,192.000000,0.000000,0.000000,0.000000,0.000000,0.000000,0.000000,0.000000,0.000000,0.000000,1648456114.633852,0.000000
254.000000,-23662.718971,-2957.471068,-9350.785238,-1253.083498,-30922.006777,26950.079435,39674.704036,23710.596408,0.080000,0.968000,0.166000,192.000000,0.000000,0.000000,0.000000,0.000000,0.000000,0.000000,0.000000,0.000000,0.000000,1648456114.641691,0.000000
255.000000,-23658.136863,-2952.129001,-9346.806627,-1248.814314,-30917.357614,26951.308781,39664.623399,23691.351556,0.080000,0.968000,0.166000,192.000000,0.000000,0.000000,0.000000,0.000000,0.000000,0.000000,0.000000,0.000000,0.000000,1648456114.641708,0.000000
0.000000,-23651.990134,-2944.887035,-9340.503435,-1240.991204,-30912.015547,26955.421502,39664.981027,23723.202792,0.080000,0.968000,0.166000,192.000000,0.000000,0.000000,0.000000,0.000000,0.000000,0.000000,0.000000,0.000000,0.000000,1648456114.649717,0.000000
1.000000,-23645.441073,-2938.941471,-9333.909671,-1231.581119,-30902.940739,26968.139645,39683.331809,23743.609934,0.080000,0.968000,0.166000,192.000000,0.000000,0.000000,0.000000,0.000000,0.000000,0.000000,0.000000,0.000000,0.000000,1648456114.649733,0.000000
2.000000,-23650.649029,-2947.681004,-9338.000040,-1237.146704,-30904.170084,26970.978316,39685.432873,23730.154184,0.080000,0.968000,0.166000,192.000000,0.000000,0.000000,0.000000,0.000000,0.000000,0.000000,0.000000,0.000000,0.000000,1648456114.656693,0.000000
3.000000,-23648.637372,-2945.959919,-9336.614232,-1239.314823,-30903.410125,26971.961793,39683.242402,23727.963713,0.080000,0.968000,0.162000,192.000000,2.000000,128.000000,30.000000,64.000000,5.000000,16.000000,0.000000,0.000000,0.000000,1648456114.656709,0.000000
4.000000,-23653.867680,-2948.016280,-9340.615194,-1250.043660,-30909.400393,26964.898642,39684.359990,23726.443795,0.080000,0.968000,0.162000,192.000000,0.000000,0.000000,0.000000,0.000000,0.000000,0.000000,0.000000,0.000000,0.000000,1648456114.663350,0.000000
5.000000,-23655.856986,-2949.737364,-9339.095275,-1229.077724,-30906.919349,26963.378723,39690.730237,23738.849013,0.080000,0.968000,0.162000,192.000000,0.000000,0.000000,0.000000,0.000000,0.000000,0.000000,0.000000,0.000000,0.000000,1648456114.663361,0.000000
6.000000,-23654.873509,-2948.440963,-9339.341144,-1233.413963,-30908.998061,26956.762607,39683.734141,23741.799443,0.080000,0.968000,0.162000,192.000000,0.000000,0.000000,0.000000,0.000000,0.000000,0.000000,0.000000,0.000000,0.000000,1648456114.671436,0.000000
7.000000,-23660.304983,-2953.492457,-9344.973784,-1239.292471,-30910.719146,26953.521604,39673.921725,23719.291236,0.080000,0.968000,0.162000,192.000000,0.000000,0.000000,0.000000,0.000000,0.000000,0.000000,0.000000,0.000000,0.000000,1648456114.679316,0.000000
8.000000,-23658.852119,-2950.765544,-9342.783313,-1240.879445,-30912.082602,26957.723732,39691.981935,23724.208620,0.080000,0.968000,0.162000,192.000000,0.000000,0.000000,0.000000,0.000000,0.000000,0.000000,0.000000,0.000000,0.000000,1648456114.679332,0.000000
9.000000,-23666.876396,-2959.192152,-9350.807589,-1251.764745,-30920.866838,26955.175633,39683.309458,23719.961789,0.080000,0.968000,0.162000,192.000000,0.000000,0.000000,0.000000,0.000000,0.000000,0.000000,0.000000,0.000000,0.000000,1648456114.686107,0.000000
10.000000,-23661.802550,-2954.699451,-9346.471351,-1249.462515,-30923.146716,26947.777205,39676.022789,23706.886018,0.080000,0.968000,0.162000,192.000000,0.000000,0.000000,0.000000,0.000000,0.000000,0.000000,0.000000,0.000000,0.000000,1648456114.686123,0.000000
11.000000,-23656.907518,-2950.944358,-9341.509264,-1245.752125,-30920.173934,26950.057083,39677.185080,23719.447699,0.080000,0.968000,0.162000,192.000000,0.000000,0.000000,0.000000,0.000000,0.000000,0.000000,0.000000,0.000000,0.000000,1648456114.694011,0.000000
12.000000,-23658.874471,-2952.956015,-9341.218691,-1246.445030,-30918.251684,26951.711112,39680.001400,23738.580792,0.080000,0.968000,0.162000,192.000000,0.000000,0.000000,0.000000,0.000000,0.000000,0.000000,0.000000,0.000000,0.000000,1648456114.694028,0.000000
13.000000,-23651.654858,-2940.081410,-9332.456807,-1232.519893,-30908.126343,26955.287392,39676.201603,23733.618705,0.082000,0.972000,0.162000,192.000000,2.000000,144.000000,30.000000,96.000000,5.000000,16.000000,0.000000,0.000000,0.000000,1648456114.702096,0.000000
14.000000,-23654.337067,-2941.757791,-9333.708505,-1233.771590,-30910.272111,26950.861746,39674.815795,23713.680948,0.082000,0.972000,0.162000,192.000000,0.000000,0.000000,0.000000,0.000000,0.000000,0.000000,0.000000,0.000000,0.000000,1648456114.702112,0.000000
15.000000,-23654.605288,-2943.344765,-9333.686153,-1232.989279,-30910.696794,26950.146490,39679.420254,23708.763565,0.082000,0.972000,0.162000,192.000000,0.000000,0.000000,0.000000,0.000000,0.000000,0.000000,0.000000,0.000000,0.000000,1648456114.709099,0.000000
16.000000,-23650.984305,-2939.679079,-9329.439322,-1227.043715,-30905.131210,26952.716941,39683.309458,23722.442832,0.082000,0.972000,0.162000,192.000000,0.000000,0.000000,0.000000,0.000000,0.000000,0.000000,0.000000,0.000000,0.000000,1648456114.709115,0.000000
17.000000,-23656.125206,-2943.970614,-9333.775560,-1229.480056,-30906.025279,26953.163976,39676.246306,23725.102690,0.082000,0.972000,0.162000,192.000000,0.000000,0.000000,0.000000,0.000000,0.000000,0.000000,0.000000,0.000000,0.000000,1648456114.716774,0.000000
18.000000,-23661.176701,-2947.189265,-9337.553005,-1235.135047,-30911.724974,26951.062912,39670.859536,23718.508925,0.082000,0.972000,0.162000,192.000000,0.000000,0.000000,0.000000,0.000000,0.000000,0.000000,0.000000,0.000000,0.000000,1648456114.716790,0.000000
19.000000,-23658.226270,-2944.261187,-9334.736685,-1244.902759,-30915.413012,26954.013342,39683.890603,23719.537106,0.082000,0.972000,0.162000,192.000000,0.000000,0.000000,0.000000,0.000000,0.000000,0.000000,0.000000,0.000000,0.000000,1648456114.724607,0.000000
20.000000,-23657.734532,-2943.300062,-9333.149711,-1228.496579,-30910.249759,26954.415674,39682.884775,23700.985158,0.082000,0.972000,0.162000,192.000000,0.000000,0.000000,0.000000,0.000000,0.000000,0.000000,0.000000,0.000000,0.000000,1648456114.724623,0.000000
21.000000,-23662.540157,-2948.440963,-9335.228424,-1222.103980,-30906.964053,26958.304877,39675.732216,23699.107611,0.082000,0.972000,0.162000,192.000000,0.000000,0.000000,0.000000,0.000000,0.000000,0.000000,0.000000,0.000000,0.000000,1648456114.731696,0.000000
22.000000,-23668.195148,-2953.067774,-9341.710429,-1239.314823,-30917.245855,26952.873403,39671.910068,23701.432192,0.082000,0.972000,0.162000,192.000000,0.000000,0.000000,0.000000,0.000000,0.000000,0.000000,0.000000,0.000000,0.000000,1648456114.738853,0.000000
23.000000,-23666.608175,-2950.653786,-9341.688078,-1244.008689,-30919.033995,26953.499252,39677.006266,23712.429251,0.080000,0.968000,0.170000,192.000000,2.000000,128.000000,30.000000,64.000000,5.000000,80.000000,0.000000,0.000000,0.000000,1648456114.738871,0.000000
24.000000,-23663.836558,-2947.099858,-9336.904804,-1232.206968,-30913.937797,26957.388456,39685.589336,23714.418556,0.080000,0.968000,0.170000,192.000000,0.000000,0.000000,0.000000,0.000000,0.000000,0.000000,0.000000,0.000000,0.000000,1648456114.746339,0.000000
25.000000,-23667.278727,-2950.877303,-9337.865929,-1234.486846,-30915.524771,26957.902546,39678.369722,23704.896713,0.080000,0.968000,0.170000,192.000000,0.000000,0.000000,0.000000,0.000000,0.000000,0.000000,0.000000,0.000000,0.000000,1648456114.746355,0.000000
26.000000,-23668.485721,-2951.614911,-9334.915499,-1230.463532,-30913.960149,26957.187290,39673.586449,23715.647902,0.080000,0.968000,0.170000,192.000000,0.000000,0.000000,0.000000,0.000000,0.000000,0.000000,0.000000,0.000000,0.000000,1648456114.754278,0.000000
27.000000,-23666.585823,-2950.050288,-9331.674496,-1228.094247,-30910.495628,26964.675124,39678.079149,23733.931629,0.080000,0.968000,0.170000,192.000000,0.000000,0.000000,0.000000,0.000000,0.000000,0.000000,0.000000,0.000000,0.000000,1648456114.754295,0.000000
28.000000,-23663.501282,-2947.211617,-9327.874700,-1228.027192,-30907.969881,26967.402037,39691.892528,23739.698379,0.080000,0.968000,0.170000,192.000000,0.000000,0.000000,0.000000,0.000000,0.000000,0.000000,0.000000,0.000000,0.000000,1648456114.762329,0.000000
29.000000,-23667.837521,-2952.486629,-9330.780426,-1230.955271,-30911.322643,26960.137720,39677.877984,23695.151352,0.080000,0.968000,0.170000,192.000000,0.000000,0.000000,0.000000,0.000000,0.000000,0.000000,0.000000,0.000000,0.000000,1648456114.762345,0.000000
30.000000,-23664.998849,-2949.223274,-9329.282859,-1227.803675,-30909.869779,26963.423427,39698.329830,23703.801477,0.080000,0.968000,0.170000,192.000000,0.000000,0.000000,0.000000,0.000000,0.000000,0.000000,0.000000,0.000000,0.000000,1648456114.768981,0.000000
31.000000,-23656.952221,-2942.137771,-9321.660915,-1221.880462,-30905.511189,26967.849072,39706.912900,23744.414597,0.080000,0.968000,0.170000,192.000000,0.000000,0.000000,0.000000,0.000000,0.000000,0.000000,0.000000,0.000000,0.000000,1648456114.768997,0.000000
32.000000,-23661.936660,-2945.781105,-9323.851386,-1230.999974,-30906.159390,26965.792711,39695.267641,23739.787786,0.080000,0.968000,0.170000,192.000000,0.000000,0.000000,0.000000,0.000000,0.000000,0.000000,0.000000,0.000000,0.000000,1648456114.776941,0.000000
33.000000,-23669.871529,-2954.386527,-9333.909671,-1256.860942,-30918.296387,26956.248517,39683.912955,23713.926818,0.078000,0.960000,0.172000,192.000000,2.000000,112.000000,30.000000,0.000000,5.000000,96.000000,0.000000,0.000000,0.000000,1648456114.776957,0.000000
34.000000,-23672.263166,-2955.682928,-9334.423761,-1227.580157,-30912.395526,26955.913240,39682.750664,23700.515771,0.078000,0.960000,0.172000,192.000000,0.000000,0.000000,0.000000,0.000000,0.000000,0.000000,0.000000,0.000000,0.000000,1648456114.784792,0.000000
35.000000,-23667.144617,-2947.636300,-9327.047685,-1222.349849,-30907.411087,26962.551709,39688.875042,23715.446736,0.078000,0.960000,0.172000,192.000000,0.000000,0.000000,0.000000,0.000000,0.000000,0.000000,0.000000,0.000000,0.000000,1648456114.784803,0.000000
36.000000,-23665.535291,-2947.613948,-9328.522900,-1225.300279,-30909.713317,26966.910299,39699.313307,23728.701321,0.078000,0.960000,0.172000,192.000000,0.000000,0.000000,0.000000,0.000000,0.000000,0.000000,0.000000,0.000000,0.000000,1648456114.791022,0.000000
37.000000,-23673.447808,-2957.091088,-9336.167197,-1232.855169,-30915.971806,26959.444816,39692.585432,23717.234876,0.078000,0.960000,0.172000,192.000000,0.000000,0.000000,0.000000,0.000000,0.000000,0.000000,0.000000,0.000000,0.000000,1648456114.798585,0.000000
38.000000,-23674.833617,-2956.040556,-9341.375153,-1237.325518,-30919.123402,26950.705284,39682.549498,23708.405937,0.078000,0.960000,0.172000,192.000000,0.000000,0.000000,0.000000,0.000000,0.000000,0.000000,0.000000,0.000000,0.000000,1648456114.798600,0.000000
39.000000,-23673.470160,-2953.984195,-9345.219653,-1242.220550,-30924.376061,26944.379740,39672.982952,23707.914198,0.078000,0.960000,0.172000,192.000000,0.000000,0.000000,0.000000,0.000000,0.000000,0.000000,0.000000,0.000000,0.000000,1648456114.806436,0.000000
40.000000,-23679.728649,-2964.310701,-9348.393601,-1250.691861,-30931.416861,26936.735444,39666.880926,23708.495344,0.078000,0.960000,0.172000,192.000000,0.000000,0.000000,0.000000,0.000000,0.000000,0.000000,0.000000,0.000000,0.000000,1648456114.806452,0.000000
41.000000,-23684.556625,-2974.436042,-9346.806627,-1247.093230,-30927.460602,26942.412787,39670.837184,23717.480745,0.078000,0.960000,0.172000,192.000000,0.000000,0.000000,0.000000,0.000000,0.000000,0.000000,0.000000,0.000000,0.000000,1648456114.814666,0.000000
42.000000,-23678.141675,-2968.781050,-9343.967956,-1247.383803,-30924.510172,26945.497328,39675.754568,23719.402995,0.078000,0.960000,0.172000,192.000000,0.000000,0.000000,0.000000,0.000000,0.000000,0.000000,0.000000,0.000000,0.000000,1648456114.814681,0.000000
43.000000,-23672.486683,-2962.701376,-9340.481083,-1241.237073,-30920.442154,26948.000723,39667.327960,23713.949169,0.078000,0.960000,0.172000,192.000000,0.000000,0.000000,0.000000,0.000000,0.000000,0.000000,0.000000,0.000000,0.000000,1648456114.821710,0.000000
44.000000,-23669.648012,-2958.499248,-9337.575357,-1238.040774,-30918.095221,26947.017246,39664.981027,23697.498285,0.078000,0.956000,0.166000,192.000000,2.000000,112.000000,29.000000,224.000000,5.000000,48.000000,0.000000,0.000000,0.000000,1648456114.821728,0.000000
45.000000,-23675.213596,-2965.472992,-9344.593804,-1250.691861,-30925.516000,26944.089168,39668.736120,23685.674213,0.078000,0.956000,0.166000,192.000000,0.000000,0.000000,0.000000,0.000000,0.000000,0.000000,0.000000,0.000000,0.000000,1648456114.829157,0.000000
46.000000,-23671.302041,-2962.276693,-9340.101104,-1254.625768,-30923.303178,26945.340865,39687.042199,23704.919065,0.078000,0.956000,0.166000,192.000000,0.000000,0.000000,0.000000,0.000000,0.000000,0.000000,0.000000,0.000000,0.000000,1648456114.829174,0.000000
47.000000,-23664.909442,-2954.922969,-9334.066133,-1241.482942,-30911.792029,26949.028903,39680.984876,23705.209637,0.078000,0.956000,0.166000,192.000000,0.000000,0.000000,0.000000,0.000000,0.000000,0.000000,0.000000,0.000000,0.000000,1648456114.837159,0.000000
48.000000,-23663.836558,-2954.498286,-9333.283822,-1229.368297,-30905.511189,26951.375836,39673.675856,23714.440908,0.078000,0.956000,0.166000,192.000000,0.000000,0.000000,0.000000,0.000000,0.000000,0.000000,0.000000,0.000000,0.000000,1648456114.837175,0.000000
49.000000,-23664.328297,-2956.085259,-9336.055438,-1238.711326,-30910.473276,26949.364179,39668.602010,23720.073547,0.078000,0.956000,0.166000,192.000000,0.000000,0.000000,0.000000,0.000000,0.000000,0.000000,0.000000,0.000000,0.000000,1648456114.844370,0.000000
50.000000,-23660.237927,-2949.804419,-9333.015601,-1237.437277,-30910.540332,26946.436101,39662.477632,23708.405937,0.078000,0.956000,0.166000,192.000000,0.000000,0.000000,0.000000,0.000000,0.000000,0.000000,0.000000,0.000000,0.000000,1648456114.844386,0.000000
51.000000,-23658.919175,-2946.518713,-9333.283822,-1232.318727,-30905.891169,26954.482729,39669.004341,23706.841315,0.078000,0.956000,0.166000,192.000000,0.000000,0.000000,0.000000,0.000000,0.000000,0.000000,0.000000,0.000000,0.000000,1648456114.850910,0.000000
52.000000,-23658.181567,-2947.323376,-9334.177892,-1231.022326,-30904.728878,26953.186328,39667.193850,23698.839390,0.078000,0.956000,0.166000,192.000000,0.000000,0.000000,0.000000,0.000000,0.000000,0.000000,0.000000,0.000000,0.000000,1648456114.858904,0.000000
53.000000,-23661.757846,-2951.816076,-9339.944642,-1235.000936,-30907.746364,26951.264078,39656.308550,23676.174721,0.078000,0.956000,0.166000,192.000000,0.000000,0.000000,0.000000,0.000000,0.000000,0.000000,0.000000,0.000000,0.000000,1648456114.858920,0.000000
54.000000,-23659.992058,-2951.570207,-9338.737647,-1234.576253,-30909.467448,26952.158147,39672.044178,23706.461335,0.086000,0.964000,0.160000,192.000000,2.000000,176.000000,30.000000,32.000000,5.000000,0.000000,0.000000,0.000000,0.000000,1648456114.866804,0.000000
55.000000,-23660.349686,-2951.480800,-9339.475255,-1239.672451,-30910.138000,26957.075531,39677.185080,23720.140603,0.086000,0.964000,0.160000,192.000000,0.000000,0.000000,0.000000,0.000000,0.000000,0.000000,0.000000,0.000000,0.000000,1648456114.866820,0.000000
56.000000,-23659.634430,-2949.491495,-9339.698772,-1244.969814,-30913.758983,26950.057083,39681.923650,23697.006547,0.086000,0.964000,0.160000,192.000000,0.000000,0.000000,0.000000,0.000000,0.000000,0.000000,0.000000,0.000000,0.000000,1648456114.873763,0.000000
57.000000,-23654.761750,-2947.233969,-9333.932022,-1226.976660,-30900.280881,26954.393322,39673.407635,23692.826771,0.086000,0.964000,0.160000,192.000000,0.000000,0.000000,0.000000,0.000000,0.000000,0.000000,0.000000,0.000000,0.000000,1648456114.873775,0.000000
58.000000,-23653.219480,-2944.104724,-9333.842615,-1228.988317,-30900.750268,26954.169804,39664.645751,23697.632396,0.086000,0.964000,0.160000,192.000000,0.000000,0.000000,0.000000,0.000000,0.000000,0.000000,0.000000,0.000000,0.000000,1648456114.881217,0.000000
59.000000,-23656.281669,-2946.541065,-9336.055438,-1243.271082,-30907.187570,26942.926877,39648.708957,23673.984250,0.086000,0.964000,0.160000,192.000000,0.000000,0.000000,0.000000,0.000000,0.000000,0.000000,0.000000,0.000000,0.000000,1648456114.881228,0.000000
60.000000,-23655.879337,-2946.406954,-9335.317830,-1226.261404,-30903.678346,26942.882173,39658.968408,23689.071678,0.086000,0.964000,0.160000,192.000000,0.000000,0.000000,0.000000,0.000000,0.000000,0.000000,0.000000,0.000000,0.000000,1648456114.889514,0.000000
61.000000,-23653.174776,-2942.875378,-9330.087522,-1219.198253,-30896.279919,26954.728598,39686.617516,23725.169745,0.086000,0.964000,0.160000,192.000000,0.000000,0.000000,0.000000,0.000000,0.000000,0.000000,0.000000,0.000000,0.000000,1648456114.889531,0.000000
62.000000,-23653.554756,-2941.623681,-9330.355743,-1226.194349,-30898.984480,26953.096921,39684.672914,23720.319417,0.086000,0.964000,0.160000,192.000000,0.000000,0.000000,0.000000,0.000000,0.000000,0.000000,0.000000,0.000000,0.000000,1648456114.897390,0.000000
63.000000,-23651.632506,-2941.958957,-9328.902880,-1225.255576,-30897.822189,26950.437063,39677.855632,23704.427326,0.086000,0.964000,0.160000,192.000000,0.000000,0.000000,0.000000,0.000000,0.000000,0.000000,0.000000,0.000000,0.000000,1648456114.897402,0.000000
64.000000,-23652.906555,-2946.898692,-9331.607441,-1229.927090,-30901.018489,26945.922011,39674.413463,23709.568227,0.084000,0.970000,0.162000,192.000000,2.000000,160.000000,30.000000,80.000000,5.000000,16.000000,0.000000,0.000000,0.000000,1648456114.904082,0.000000
65.000000,-23652.370113,-2945.825809,-9330.713371,-1229.189483,-30900.191474,26946.927839,39672.357103,23724.342731,0.084000,0.970000,0.162000,192.000000,0.000000,0.000000,0.000000,0.000000,0.000000,0.000000,0.000000,0.000000,0.000000,1648456114.904098,0.000000
66.000000,-23653.487701,-2948.351556,-9332.546214,-1231.067029,-30902.225483,26945.899659,39662.701149,23703.399146,0.084000,0.970000,0.162000,192.000000,0.000000,0.000000,0.000000,0.000000,0.000000,0.000000,0.000000,0.000000,0.000000,1648456114.911295,0.000000
67.000000,-23651.856023,-2948.396259,-9332.434455,-1228.384820,-30902.203131,26950.906450,39664.936324,23711.736347,0.084000,0.970000,0.162000,192.000000,0.000000,0.000000,0.000000,0.000000,0.000000,0.000000,0.000000,0.000000,0.000000,1648456114.911311,0.000000
68.000000,-23657.846291,-2952.911312,-9340.883415,-1233.726887,-30907.142867,26953.208679,39665.919801,23712.630416,0.084000,0.970000,0.162000,192.000000,0.000000,0.000000,0.000000,0.000000,0.000000,0.000000,0.000000,0.000000,0.000000,1648456114.919151,0.000000
69.000000,-23660.170872,-2954.028899,-9344.727915,-1236.789076,-30913.043727,26946.056121,39656.822641,23698.928797,0.084000,0.970000,0.162000,192.000000,0.000000,0.000000,0.000000,0.000000,0.000000,0.000000,0.000000,0.000000,0.000000,1648456114.926193,0.000000
70.000000,-23666.719933,-2959.125097,-9350.606424,-1247.495562,-30925.001910,26938.992970,39652.844030,23682.522617,0.084000,0.970000,0.162000,192.000000,0.000000,0.000000,0.000000,0.000000,0.000000,0.000000,0.000000,0.000000,0.000000,1648456114.926209,0.000000
71.000000,-23672.978422,-2964.824792,-9355.456752,-1256.123335,-30931.930951,26937.718920,39662.187059,23681.382678,0.084000,0.970000,0.162000,192.000000,0.000000,0.000000,0.000000,0.000000,0.000000,0.000000,0.000000,0.000000,0.000000,1648456114.933731,0.000000
72.000000,-23672.889015,-2965.383585,-9354.741496,-1255.184562,-30928.980521,26946.547859,39678.235612,23711.937512,0.084000,0.970000,0.162000,192.000000,0.000000,0.000000,0.000000,0.000000,0.000000,0.000000,0.000000,0.000000,0.000000,1648456114.933746,0.000000
73.000000,-23670.206805,-2965.204771,-9355.188531,-1256.659777,-30930.612198,26946.950191,39671.038350,23710.663463,0.084000,0.970000,0.162000,192.000000,0.000000,0.000000,0.000000,0.000000,0.000000,0.000000,0.000000,0.000000,0.000000,1648456114.941819,0.000000
74.000000,-23671.525558,-2966.098841,-9357.691927,-1266.114565,-30938.524716,26938.389473,39653.000492,23691.910349,0.076000,0.976000,0.160000,192.000000,2.000000,96.000000,30.000000,128.000000,5.000000,0.000000,0.000000,0.000000,0.000000,1648456114.941835,0.000000
75.000000,-23669.245680,-2964.690681,-9353.802723,-1253.709346,-30932.042710,26941.161089,39668.624362,23701.007509,0.076000,0.976000,0.160000,192.000000,0.000000,0.000000,0.000000,0.000000,0.000000,0.000000,0.000000,0.000000,0.000000,1648456114.949536,0.000000
76.000000,-23661.042590,-2956.219370,-9346.493703,-1231.424657,-30920.643320,26946.726673,39690.126740,23714.977350,0.076000,0.976000,0.160000,192.000000,0.000000,0.000000,0.000000,0.000000,0.000000,0.000000,0.000000,0.000000,0.000000,1648456114.949546,0.000000
77.000000,-23658.203919,-2951.324338,-9343.006831,-1234.240977,-30917.312910,26948.246592,39689.187966,23718.084242,0.076000,0.976000,0.160000,192.000000,0.000000,0.000000,0.000000,0.000000,0.000000,0.000000,0.000000,0.000000,0.000000,1648456114.956490,0.000000
78.000000,-23653.554756,-2943.992966,-9340.615194,-1232.229320,-30911.054422,26949.632400,39678.772054,23696.224236,0.076000,0.976000,0.160000,192.000000,0.000000,0.000000,0.000000,0.000000,0.000000,0.000000,0.000000,0.000000,0.000000,1648456114.956503,0.000000
79.000000,-23658.583898,-2951.883131,-9344.750267,-1240.722983,-30915.390660,26942.256325,39662.790556,23657.309849,0.076000,0.976000,0.160000,192.000000,0.000000,0.000000,0.000000,0.000000,0.000000,0.000000,0.000000,0.000000,0.000000,1648456114.964450,0.000000
80.000000,-23664.104779,-2956.442887,-9347.030145,-1241.281777,-30919.525733,26934.477917,39658.633132,23669.804474,0.076000,0.976000,0.160000,192.000000,0.000000,0.000000,0.000000,0.000000,0.000000,0.000000,0.000000,0.000000,0.000000,1648456114.964466,0.000000
81.000000,-23661.154349,-2951.413745,-9344.012659,-1236.319689,-30913.915445,26948.246592,39680.515490,23730.198888,0.076000,0.976000,0.160000,192.000000,0.000000,0.000000,0.000000,0.000000,0.000000,0.000000,0.000000,0.000000,0.000000,1648456114.972429,0.000000
82.000000,-23664.149483,-2955.325300,-9348.930043,-1242.645233,-30917.715242,26953.454549,39689.724408,23731.607048,0.076000,0.976000,0.160000,192.000000,0.000000,0.000000,0.000000,0.000000,0.000000,0.000000,0.000000,0.000000,0.000000,1648456114.972447,0.000000
83.000000,-23665.825864,-2959.169800,-9350.829941,-1246.243864,-30924.845448,26949.073607,39680.381379,23721.347597,0.076000,0.976000,0.160000,192.000000,0.000000,0.000000,0.000000,0.000000,0.000000,0.000000,0.000000,0.000000,0.000000,1648456114.979371,0.000000
84.000000,-23659.366209,-2954.028899,-9346.337240,-1243.226378,-30921.716204,26951.353485,39683.152995,23731.249420,0.072000,0.970000,0.162000,192.000000,2.000000,64.000000,30.000000,80.000000,5.000000,16.000000,0.000000,0.000000,0.000000,1648456114.986050,0.000000
85.000000,-23663.613041,-2957.694585,-9348.974746,-1242.399364,-30919.279864,26953.655714,39680.113158,23721.884039,0.072000,0.970000,0.162000,192.000000,0.000000,0.000000,0.000000,0.000000,0.000000,0.000000,0.000000,0.000000,0.000000,1648456114.986067,0.000000
86.000000,-23662.026067,-2955.280597,-9348.013621,-1240.968852,-30919.637492,26947.844261,39682.258926,23704.002643,0.072000,0.970000,0.162000,192.000000,0.000000,0.000000,0.000000,0.000000,0.000000,0.000000,0.000000,0.000000,0.000000,1648456114.993939,0.000000
87.000000,-23659.701486,-2955.012376,-9347.857159,-1239.717154,-30917.491724,26951.532299,39680.962525,23698.079431,0.072000,0.970000,0.162000,192.000000,0.000000,0.000000,0.000000,0.000000,0.000000,0.000000,0.000000,0.000000,0.000000,1648456114.993954,0.000000
88.000000,-23662.696619,-2959.773297,-9352.148694,-1245.193332,-30921.380928,26948.648923,39669.160803,23712.138678,0.072000,0.970000,0.162000,192.000000,0.000000,0.000000,0.000000,0.000000,0.000000,0.000000,0.000000,0.000000,0.000000,1648456115.001863,0.000000
89.000000,-23664.551814,-2960.689719,-9352.126342,-1243.338137,-30923.392585,26942.032807,39667.171498,23712.026919,0.072000,0.970000,0.162000,192.000000,0.000000,0.000000,0.000000,0.000000,0.000000,0.000000,0.000000,0.000000,0.000000,1648456115.001875,0.000000
90.000000,-23665.065904,-2962.634321,-9351.589900,-1256.749184,-30928.421727,26945.206755,39681.029580,23714.060928,0.072000,0.970000,0.162000,192.000000,0.000000,0.000000,0.000000,0.000000,0.000000,0.000000,0.000000,0.000000,0.000000,1648456115.008986,0.000000
91.000000,-23665.065904,-2961.404975,-9352.126342,-1253.374070,-30928.175858,26944.849127,39668.311437,23702.862704,0.072000,0.970000,0.162000,192.000000,0.000000,0.000000,0.000000,0.000000,0.000000,0.000000,0.000000,0.000000,0.000000,1648456115.008997,0.000000
92.000000,-23665.334125,-2962.567265,-9350.427610,-1233.659832,-30920.397451,26940.289371,39663.081129,23698.928797,0.072000,0.970000,0.162000,192.000000,0.000000,0.000000,0.000000,0.000000,0.000000,0.000000,0.000000,0.000000,0.000000,1648456115.016708,0.000000
93.000000,-23668.508073,-2963.930722,-9354.003889,-1243.919282,-30926.454774,26937.160127,39667.707940,23696.000719,0.072000,0.970000,0.162000,192.000000,0.000000,0.000000,0.000000,0.000000,0.000000,0.000000,0.000000,0.000000,0.000000,1648456115.016724,0.000000
94.000000,-23663.925965,-2958.186323,-9349.265319,-1240.320652,-30923.169067,26940.468185,39669.741949,23695.419573,0.080000,0.974000,0.156000,192.000000,2.000000,128.000000,30.000000,112.000000,4.000000,224.000000,0.000000,0.000000,0.000000,1648456115.024779,0.000000
95.000000,-23661.623736,-2953.246588,-9344.906729,-1235.984413,-30917.849352,26947.039598,39678.414426,23718.643036,0.080000,0.974000,0.156000,192.000000,0.000000,0.000000,0.000000,0.000000,0.000000,0.000000,0.000000,0.000000,0.000000,1648456115.024795,0.000000
96.000000,-23662.584861,-2958.946283,-9347.253662,-1238.644271,-30919.235160,26948.000723,39671.083053,23714.016225,0.080000,0.974000,0.156000,192.000000,0.000000,0.000000,0.000000,0.000000,0.000000,0.000000,0.000000,0.000000,0.000000,1648456115.032665,0.000000
97.000000,-23669.692715,-2969.116326,-9356.753153,-1248.188466,-30928.086451,26939.194136,39656.241495,23689.585768,0.080000,0.974000,0.156000,192.000000,0.000000,0.000000,0.000000,0.000000,0.000000,0.000000,0.000000,0.000000,0.000000,1648456115.032681,0.000000
98.000000,-23671.771428,-2968.669292,-9358.273072,-1250.624806,-30932.623855,26932.935647,39657.403786,23688.334070,0.080000,0.974000,0.156000,192.000000,0.000000,0.000000,0.000000,0.000000,0.000000,0.000000,0.000000,0.000000,0.000000,1648456115.038831,0.000000
99.000000,-23663.836558,-2961.404975,-9352.841598,-1244.723945,-30930.478088,26929.582885,39655.593295,23683.684907,0.080000,0.974000,0.156000,192.000000,0.000000,0.000000,0.000000,0.000000,0.000000,0.000000,0.000000,0.000000,0.000000,1648456115.046337,0.000000
100.000000,-23659.366209,-2959.460373,-9350.427610,-1245.126277,-30930.925123,26926.744214,39664.981027,23685.942434,0.080000,0.974000,0.156000,192.000000,0.000000,0.000000,0.000000,0.000000,0.000000,0.000000,0.000000,0.000000,0.000000,1648456115.046352,0.000000
101.000000,-23658.315677,-2957.627530,-9350.002927,-1242.578178,-30928.645245,26935.819022,39681.677780,23717.458393,0.080000,0.974000,0.156000,192.000000,0.000000,0.000000,0.000000,0.000000,0.000000,0.000000,0.000000,0.000000,0.000000,1648456115.054038,0.000000
102.000000,-23649.240869,-2948.798591,-9344.213825,-1235.358564,-30923.414936,26937.517755,39672.513565,23722.174611,0.080000,0.974000,0.156000,192.000000,0.000000,0.000000,0.000000,0.000000,0.000000,0.000000,0.000000,0.000000,0.000000,1648456115.054049,0.000000
103.000000,-23650.917250,-2955.124134,-9345.510226,-1238.286643,-30926.208905,26930.812231,39652.285236,23691.083335,0.080000,0.974000,0.156000,192.000000,0.000000,0.000000,0.000000,0.000000,0.000000,0.000000,0.000000,0.000000,0.000000,1648456115.061905,0.000000
104.000000,-23657.332201,-2961.337919,-9350.628775,-1244.858056,-30932.154469,26927.459470,39645.803231,23647.698599,0.082000,0.976000,0.156000,192.000000,2.000000,144.000000,30.000000,128.000000,4.000000,224.000000,0.000000,0.000000,0.000000,1648456115.061911,0.000000
105.000000,-23659.992058,-2959.996815,-9352.618081,-1244.567483,-30933.830849,26927.548877,39663.751681,23641.306000,0.082000,0.976000,0.156000,192.000000,0.000000,0.000000,0.000000,0.000000,0.000000,0.000000,0.000000,0.000000,0.000000,1648456115.069035,0.000000
106.000000,-23656.192262,-2955.526466,-9346.270185,-1235.693840,-30927.125326,26935.953133,39666.456242,23698.347652,0.082000,0.976000,0.156000,192.000000,0.000000,0.000000,0.000000,0.000000,0.000000,0.000000,0.000000,0.000000,0.000000,1648456115.069052,0.000000
107.000000,-23655.834634,-2953.984195,-9343.632679,-1234.643308,-30922.543218,26953.655714,39679.710827,23752.193004,0.082000,0.976000,0.156000,192.000000,0.000000,0.000000,0.000000,0.000000,0.000000,0.000000,0.000000,0.000000,0.000000,1648456115.077023,0.000000
108.000000,-23651.341933,-2948.217445,-9338.178854,-1230.508236,-30919.615140,26956.941421,39683.443568,23742.671161,0.082000,0.976000,0.156000,192.000000,0.000000,0.000000,0.000000,0.000000,0.000000,0.000000,0.000000,0.000000,0.000000,1648456115.077039,0.000000
109.000000,-23655.588765,-2952.307815,-9343.453865,-1238.376050,-30925.806573,26943.597429,39667.842051,23703.779126,0.082000,0.976000,0.156000,192.000000,0.000000,0.000000,0.000000,0.000000,0.000000,0.000000,0.000000,0.000000,0.000000,1648456115.084924,0.000000
110.000000,-23653.063017,-2949.469143,-9342.313926,-1237.034945,-30923.370233,26939.819984,39664.824565,23690.412782,0.082000,0.976000,0.156000,192.000000,0.000000,0.000000,0.000000,0.000000,0.000000,0.000000,0.000000,0.000000,0.000000,1648456115.084940,0.000000
111.000000,-23652.370113,-2947.301024,-9342.515092,-1234.173922,-30923.124364,26945.050293,39663.192888,23715.759661,0.082000,0.976000,0.156000,192.000000,0.000000,0.000000,0.000000,0.000000,0.000000,0.000000,0.000000,0.000000,0.000000,1648456115.091455,0.000000
112.000000,-23658.494491,-2953.090126,-9348.125380,-1239.761858,-30928.220562,26948.291296,39672.938248,23721.861687,0.082000,0.976000,0.156000,192.000000,0.000000,0.000000,0.000000,0.000000,0.000000,0.000000,0.000000,0.000000,0.000000,1648456115.091472,0.000000
113.000000,-23655.074674,-2946.943396,-9343.386810,-1233.503370,-30922.453811,26951.532299,39670.278391,23710.708166,0.082000,0.976000,0.156000,192.000000,0.000000,0.000000,0.000000,0.000000,0.000000,0.000000,0.000000,0.000000,0.000000,1648456115.098554,0.000000
114.000000,-23650.581974,-2940.416687,-9338.201206,-1225.456742,-30916.418840,26950.817043,39676.872155,23705.611969,0.082000,0.974000,0.156000,192.000000,2.000000,144.000000,30.000000,112.000000,4.000000,224.000000,0.000000,0.000000,0.000000,1648456115.106437,0.000000
115.000000,-23647.206860,-2936.393373,-9335.474293,-1220.315840,-30910.339166,26958.260174,39678.570888,23717.793669,0.082000,0.974000,0.156000,192.000000,0.000000,0.000000,0.000000,0.000000,0.000000,0.000000,0.000000,0.000000,0.000000,1648456115.106453,0.000000
116.000000,-23644.770520,-2933.912329,-9333.507339,-1217.655983,-30906.517018,26959.467168,39675.173423,23725.885001,0.082000,0.974000,0.156000,192.000000,0.000000,0.000000,0.000000,0.000000,0.000000,0.000000,0.000000,0.000000,0.000000,1648456115.114611,0.000000
117.000000,-23644.457596,-2935.298137,-9331.540386,-1218.080666,-30905.399430,26961.322363,39696.251118,23733.328132,0.082000,0.974000,0.156000,192.000000,0.000000,0.000000,0.000000,0.000000,0.000000,0.000000,0.000000,0.000000,0.000000,1648456115.114627,0.000000
118.000000,-23650.201994,-2946.250492,-9339.184682,-1227.490750,-30911.747326,26954.192156,39680.224917,23715.446736,0.082000,0.974000,0.156000,192.000000,0.000000,0.000000,0.000000,0.000000,0.000000,0.000000,0.000000,0.000000,0.000000,1648456115.121249,0.000000
119.000000,-23653.152424,-2950.877303,-9343.409162,-1232.609300,-30918.788125,26943.977409,39671.485385,23702.974463,0.082000,0.974000,0.156000,192.000000,0.000000,0.000000,0.000000,0.000000,0.000000,0.000000,0.000000,0.000000,0.000000,1648456115.121265,0.000000
120.000000,-23651.476044,-2948.284501,-9340.324621,-1230.619994,-30919.481029,26941.965752,39672.647676,23709.992911,0.082000,0.974000,0.156000,192.000000,0.000000,0.000000,0.000000,0.000000,0.000000,0.000000,0.000000,0.000000,0.000000,1648456115.129287,0.000000
121.000000,-23649.397331,-2946.921044,-9340.324621,-1229.413000,-30917.759945,26946.838432,39674.681684,23714.150335,0.082000,0.974000,0.156000,192.000000,0.000000,0.000000,0.000000,0.000000,0.000000,0.000000,0.000000,0.000000,0.000000,1648456115.129304,0.000000
122.000000,-23657.555718,-2954.408879,-9349.891168,-1242.444067,-30925.471297,26940.132909,39664.958675,23697.587692,0.082000,0.974000,0.156000,192.000000,0.000000,0.000000,0.000000,0.000000,0.000000,0.000000,0.000000,0.000000,0.000000,1648456115.137206,0.000000
123.000000,-23651.252526,-2949.469143,-9345.040839,-1245.372146,-30924.130192,26938.188307,39666.657408,23696.268940,0.082000,0.974000,0.156000,192.000000,0.000000,0.000000,0.000000,0.000000,0.000000,0.000000,0.000000,0.000000,0.000000,1648456115.137222,0.000000
124.000000,-23647.251564,-2945.602291,-9339.810531,-1226.194349,-30915.055384,26942.636304,39662.052949,23697.028899,0.078000,0.974000,0.154000,192.000000,2.000000,112.000000,30.000000,112.000000,4.000000,208.000000,0.000000,0.000000,0.000000,1648456115.144259,0.000000
125.000000,-23658.874471,-2955.191190,-9351.187569,-1231.178788,-30924.510172,26928.241781,39640.818791,23673.581919,0.078000,0.974000,0.154000,192.000000,0.000000,0.000000,0.000000,0.000000,0.000000,0.000000,0.000000,0.000000,0.000000,1648456115.144276,0.000000
126.000000,-23661.757846,-2958.163972,-9354.517979,-1239.784210,-30931.506268,26918.451717,39636.996643,23659.053285,0.078000,0.974000,0.154000,192.000000,0.000000,0.000000,0.000000,0.000000,0.000000,0.000000,0.000000,0.000000,0.000000,1648456115.151950,0.000000
127.000000,-23664.931794,-2960.041518,-9358.317776,-1245.215684,-30933.227352,26919.971635,39628.704146,23670.184454,0.078000,0.974000,0.154000,192.000000,0.000000,0.000000,0.000000,0.000000,0.000000,0.000000,0.000000,0.000000,0.000000,1648456115.151966,0.000000
128.000000,-23660.707314,-2952.464277,-9354.763848,-1241.885274,-30932.400338,26922.318569,39651.704091,23696.604216,0.078000,0.974000,0.154000,192.000000,0.000000,0.000000,0.000000,0.000000,0.000000,0.000000,0.000000,0.000000,0.000000,1648456115.158853,0.000000
129.000000,-23662.361343,-2951.994890,-9355.054421,-1241.170018,-30933.897905,26920.552781,39663.125832,23682.992003,0.078000,0.974000,0.154000,192.000000,0.000000,0.000000,0.000000,0.000000,0.000000,0.000000,0.000000,0.000000,0.000000,1648456115.158869,0.000000
130.000000,-23668.955108,-2962.500210,-9362.229331,-1253.955216,-30943.844431,26917.244723,39668.154975,23666.786989,0.078000,0.974000,0.154000,192.000000,0.000000,0.000000,0.000000,0.000000,0.000000,0.000000,0.000000,0.000000,0.000000,1648456115.166754,0.000000
131.000000,-23671.391448,-2964.556571,-9363.861008,-1261.353643,-30948.381835,26913.981368,39660.376568,23678.164027,0.078000,0.974000,0.154000,192.000000,0.000000,0.000000,0.000000,0.000000,0.000000,0.000000,0.000000,0.000000,0.000000,1648456115.173987,0.000000
132.000000,-23674.855968,-2969.071623,-9364.062174,-1251.295358,-30942.346864,26921.983292,39652.799327,23704.382623,0.078000,0.974000,0.154000,192.000000,0.000000,0.000000,0.000000,0.000000,0.000000,0.000000,0.000000,0.000000,0.000000,1648456115.174003,0.000000
133.000000,-23672.754904,-2968.244608,-9361.692889,-1253.754050,-30938.368254,26931.348673,39667.730292,23726.376739,0.078000,0.974000,0.154000,192.000000,0.000000,0.000000,0.000000,0.000000,0.000000,0.000000,0.000000,0.000000,0.000000,1648456115.181575,0.000000
134.000000,-23675.951204,-2971.262094,-9365.492685,-1264.259370,-30944.738501,26935.506098,39671.910068,23730.176536,0.086000,0.974000,0.154000,192.000000,2.000000,176.000000,30.000000,112.000000,4.000000,208.000000,0.000000,0.000000,0.000000,1648456115.181590,0.000000
135.000000,-23680.063925,-2973.720786,-9365.917369,-1245.685070,-30945.252591,26937.450700,39672.044178,23728.455452,0.086000,0.974000,0.154000,192.000000,0.000000,0.000000,0.000000,0.000000,0.000000,0.000000,0.000000,0.000000,0.000000,1648456115.189180,0.000000
136.000000,-23679.862759,-2972.960827,-9365.626796,-1256.771535,-30947.130137,26944.111519,39685.812853,23747.119158,0.086000,0.974000,0.154000,192.000000,0.000000,0.000000,0.000000,0.000000,0.000000,0.000000,0.000000,0.000000,0.000000,1648456115.189189,0.000000
137.000000,-23678.566358,-2971.463260,-9365.537389,-1252.815277,-30944.179707,26944.938534,39686.528109,23733.171670,0.086000,0.974000,0.154000,192.000000,0.000000,0.000000,0.000000,0.000000,0.000000,0.000000,0.000000,0.000000,0.000000,1648456115.197217,0.000000
138.000000,-23676.599404,-2967.194076,-9363.548084,-1252.032966,-30941.676312,26953.029865,39689.098560,23732.724635,0.086000,0.974000,0.154000,192.000000,0.000000,0.000000,0.000000,0.000000,0.000000,0.000000,0.000000,0.000000,0.000000,1648456115.197226,0.000000
139.000000,-23675.101838,-2968.781050,-9362.810476,-1254.268140,-30944.872611,26951.308781,39680.649600,23731.495289,0.086000,0.974000,0.154000,192.000000,0.000000,0.000000,0.000000,0.000000,0.000000,0.000000,0.000000,0.000000,0.000000,1648456115.203849,0.000000
140.000000,-23674.587747,-2972.200867,-9361.558778,-1245.841532,-30940.111690,26949.207717,39674.748740,23718.017187,0.086000,0.974000,0.154000,192.000000,0.000000,0.000000,0.000000,0.000000,0.000000,0.000000,0.000000,0.000000,0.000000,1648456115.203860,0.000000
141.000000,-23678.812227,-2973.944303,-9367.750212,-1251.854152,-30943.419748,26943.776243,39671.775958,23711.423422,0.086000,0.974000,0.154000,192.000000,0.000000,0.000000,0.000000,0.000000,0.000000,0.000000,0.000000,0.000000,0.000000,1648456115.211872,0.000000
142.000000,-23668.865701,-2964.444812,-9358.407183,-1246.914416,-30937.205963,26942.278676,39666.724463,23716.452565,0.086000,0.974000,0.154000,192.000000,0.000000,0.000000,0.000000,0.000000,0.000000,0.000000,0.000000,0.000000,0.000000,1648456115.211882,0.000000
143.000000,-23662.428398,-2957.046384,-9350.248796,-1248.546094,-30930.008701,26945.899659,39661.494155,23712.585713,0.086000,0.974000,0.154000,192.000000,0.000000,0.000000,0.000000,0.000000,0.000000,0.000000,0.000000,0.000000,0.000000,1648456115.220133,0.000000
144.000000,-23669.871529,-2968.356367,-9359.368308,-1257.978530,-30939.709358,26933.270923,39648.172515,23699.308777,0.088000,0.980000,0.152000,192.000000,2.000000,192.000000,30.000000,160.000000,4.000000,192.000000,0.000000,0.000000,0.000000,1648456115.220148,0.000000
145.000000,-23661.981364,-2960.689719,-9345.845502,-1230.061201,-30926.968864,26938.389473,39651.458222,23696.514809,0.088000,0.980000,0.152000,192.000000,0.000000,0.000000,0.000000,0.000000,0.000000,0.000000,0.000000,0.000000,0.000000,1648456115.227090,0.000000
146.000000,-23655.365247,-2955.615873,-9340.034049,-1236.274986,-30921.872666,26949.498290,39662.231763,23705.813134,0.088000,0.980000,0.152000,192.000000,0.000000,0.000000,0.000000,0.000000,0.000000,0.000000,0.000000,0.000000,0.000000,1648456115.233788,0.000000
147.000000,-23655.029971,-2951.681966,-9340.324621,-1228.384820,-30916.374137,26949.118310,39668.378492,23695.821905,0.088000,0.980000,0.152000,192.000000,0.000000,0.000000,0.000000,0.000000,0.000000,0.000000,0.000000,0.000000,0.000000,1648456115.233804,0.000000
148.000000,-23655.454654,-2949.133867,-9341.129284,-1226.775494,-30916.620006,26947.374874,39669.138452,23701.231027,0.088000,0.980000,0.152000,192.000000,0.000000,0.000000,0.000000,0.000000,0.000000,0.000000,0.000000,0.000000,0.000000,1648456115.241802,0.000000
149.000000,-23654.158253,-2946.026974,-9340.436380,-1229.703573,-30918.206980,26943.709188,39667.529126,23707.780088,0.088000,0.980000,0.152000,192.000000,0.000000,0.000000,0.000000,0.000000,0.000000,0.000000,0.000000,0.000000,0.000000,1648456115.241818,0.000000
150.000000,-23647.430378,-2938.986175,-9334.759037,-1229.122428,-30915.815343,26941.943400,39668.937286,23709.076489,0.088000,0.980000,0.152000,192.000000,0.000000,0.000000,0.000000,0.000000,0.000000,0.000000,0.000000,0.000000,0.000000,1648456115.249845,0.000000
151.000000,-23647.720951,-2943.322413,-9335.854272,-1226.015535,-30912.373175,26943.262153,39663.975199,23715.446736,0.088000,0.980000,0.152000,192.000000,0.000000,0.000000,0.000000,0.000000,0.000000,0.000000,0.000000,0.000000,0.000000,1648456115.249860,0.000000
152.000000,-23647.564488,-2942.651861,-9336.591880,-1219.108846,-30908.752192,26937.249534,39643.456297,23698.749983,0.088000,0.980000,0.152000,192.000000,0.000000,0.000000,0.000000,0.000000,0.000000,0.000000,0.000000,0.000000,0.000000,1648456115.256294,0.000000
153.000000,-23642.803567,-2934.493474,-9333.641450,-1217.946555,-30909.601558,26930.186383,39635.476725,23699.822867,0.088000,0.980000,0.152000,192.000000,0.000000,0.000000,0.000000,0.000000,0.000000,0.000000,0.000000,0.000000,0.000000,1648456115.256312,0.000000
154.000000,-23638.176756,-2931.677155,-9330.154578,-1213.163282,-30904.639471,26943.150394,39664.086957,23718.397167,0.088000,0.980000,0.152000,192.000000,0.000000,0.000000,0.000000,0.000000,0.000000,0.000000,0.000000,0.000000,0.000000,1648456115.264195,0.000000
155.000000,-23645.374017,-2938.494437,-9336.234252,-1222.394553,-30912.172009,26943.195098,39670.054873,23705.880190,0.076000,0.974000,0.156000,192.000000,2.000000,96.000000,30.000000,112.000000,4.000000,224.000000,0.000000,0.000000,0.000000,1648456115.264211,0.000000
156.000000,-23653.286535,-2947.055155,-9340.235214,-1243.136971,-30919.771602,26940.915220,39673.519394,23710.685815,0.076000,0.974000,0.156000,192.000000,0.000000,0.000000,0.000000,0.000000,0.000000,0.000000,0.000000,0.000000,0.000000,1648456115.272451,0.000000
157.000000,-23658.785064,-2953.403050,-9343.029182,-1237.414925,-30920.755079,26938.635342,39666.322132,23714.820887,0.076000,0.974000,0.156000,192.000000,0.000000,0.000000,0.000000,0.000000,0.000000,0.000000,0.000000,0.000000,0.000000,1648456115.272467,0.000000
158.000000,-23668.642183,-2965.182419,-9355.657918,-1244.075745,-30928.555838,26931.460432,39659.929533,23697.185361,0.076000,0.974000,0.156000,192.000000,0.000000,0.000000,0.000000,0.000000,0.000000,0.000000,0.000000,0.000000,0.000000,1648456115.279434,0.000000
